Id      Time stamp(sec)   x (nm)         y (nm)           z(nm)
2456	88.9549	        20710.18317	3959.97247	-230.74219
2456	88.95592	20723.04073	3951.54481	-220.5801
2456	88.95645	20716.11111	3945.45671	-208.66711
2456	88.95697	20720.70063	3959.88749	-192.64763
2456	88.9575	        20709.83966	3941.74556	-203.03479
2456	88.95803	20697.22372	3957.24641	-195.52866
2456	88.95855	20708.27499	3957.5306	-192.16281
2456	88.95908	20694.20973	3945.4257	-205.79884
2456	88.9596	        20682.42885	3945.33957	-193.87826
2456	88.96013	20688.79499	3972.35965	-196.18012
2456	88.96065	20683.29362	3943.41448	-196.18702
2456	88.96118	20701.59055	3948.44197	-216.01888
2456	88.9617	        20691.95279	3949.81685	-217.08169
2456	88.96273	20696.88944	3958.14314	-202.05898
2456	88.96478	20704.42866	3960.38473	-193.65531
2456	88.96531	20696.22521	3959.93531	-198.0865
2456	88.96583	20686.85576	3958.33174	-212.73027
3107	94.51806	21596.71768	4214.69844	-1.57085
3107	94.51859	21621.57275	4196.68968	4.464
3107	94.51911	21619.18683	4204.13542	10.24091
3107	94.51964	21619.1869	4186.98396	0.69507
3107	94.52017	21598.87062	4195.33715	17.97881
3107	94.52119	21616.9689	4201.97013	20.68848
3107	94.52222	21590.81964	4192.5008	7.34634
3107	94.52677	21583.86575	4192.40936	5.30095
6961	123.76031	18711.41353	1845.54432	-230.39037
6961	123.76084	18692.25429	1865.43652	-233.12039
6961	123.76136	18680.07257	1856.47768	-257.46194
6961	123.76189	18673.5612	1851.33322	-248.73641
6961	123.76291	18692.28422	1868.98221	-241.11935
6961	123.76494	18685.33908	1890.4668	-221.9085
6961	123.76647	18669.88778	1879.74518	-226.26311
6961	123.76699	18672.4349	1878.07446	-228.64324
6961	123.76852	18672.31468	1873.04467	-243.33055
7147	125.14654	20112.64981	3518.67805	103.2735
7147	125.14707	20083.81406	3499.61816	99.58018
7147	125.14759	20094.74026	3490.93316	105.68235
7147	125.14812	20102.38051	3518.88281	111.5778
7147	125.14864	20091.95676	3498.88466	109.03641
7147	125.14917	20089.07509	3501.1752	136.05849
7147	125.14969	20078.01215	3509.98482	122.50988
7147	125.15172	20078.37434	3505.99818	122.50071
7147	125.15625	20077.34575	3505.99791	119.70639
8149	132.32277	19628.52469	1806.97456	-126.91097
8149	132.32379	19647.40121	1829.13441	-116.45216
8149	132.32432	19668.92448	1819.54704	-123.00692
8149	132.32534	19657.29166	1809.65384	-134.70698
8149	132.32587	19660.26582	1837.29986	-131.00231
8149	132.32639	19668.58046	1854.79541	-121.11301
8149	132.32692	19672.32437	1832.31649	-98.45968
8149	132.32745	19696.31604	1864.82469	-115.26902
8149	132.32797	19669.8786	1856.49803	-117.342
8149	132.3285	19672.70554	1845.12964	-106.09009
8149	132.32902	19675.15466	1832.59057	-77.81685
8149	132.32955	19656.95698	1837.81255	-96.78572
8736	136.55446	19454.65129	1362.5733	-198.01015
8736	136.55548	19450.01691	1341.895	-201.35938
8736	136.55601	19452.54316	1365.15654	-188.39672
8736	136.55703	19452.53147	1355.95175	-192.12576
8736	136.55806	19443.98802	1381.45397	-194.3906
8736	136.55858	19434.35872	1357.79745	-208.80815
8736	136.55911	19444.31868	1377.9543	-185.55821
8736	136.56014	19448.91044	1383.44307	-171.4055
8736	136.56119	19458.36475	1371.45416	-153.89735
8736	136.56171	19465.64854	1367.91702	-156.26194
8736	136.56224	19471.36949	1368.60933	-136.33167
8736	136.56276	19467.29219	1376.83732	-150.99871
8736	136.56329	19460.82192	1390.11882	-158.25076
8736	136.56431	19460.03439	1384.53131	-188.46664
8736	136.56484	19452.26955	1371.69686	-196.17587
8736	136.56536	19471.41124	1387.16068	-211.22518
8736	136.56589	19476.22137	1398.65073	-221.44418
8736	136.56641	19469.94782	1390.30142	-202.41632
8736	136.56694	19480.8955	1386.65217	-187.91412
8736	136.56799	19452.17339	1378.7569	-192.13578
8736	136.56902	19484.92816	1395.77786	-183.34147
8736	136.56954	19468.5097	1392.70337	-181.75164
8736	136.57007	19437.83869	1389.35964	-206.76396
8736	136.57059	19463.0609	1383.4945	-237.45411
8736	136.57112	19455.17914	1364.41175	-231.54435
8736	136.57164	19471.31547	1382.64757	-239.93919
8736	136.57217	19479.98951	1378.94876	-234.89276
8736	136.57269	19468.27641	1366.75734	-247.37474
8736	136.57322	19448.48651	1368.41296	-262.27039
8736	136.57374	19466.05317	1352.98774	-276.6411
8736	136.57427	19462.33686	1371.5776	-279.45774
8906	137.89482	20189.0352	2487.29499	-176.98022
8906	137.89534	20206.74534	2507.58689	-160.82229
8906	137.89587	20197.78917	2482.26405	-157.11591
8906	137.89689	20202.61537	2491.4293	-142.45805
8906	137.89742	20200.11457	2483.92548	-136.27614
8906	137.89845	20180.45768	2476.30539	-130.35336
8906	137.89947	20180.71479	2464.38233	-150.0517
8906	137.901	20185.58274	2451.05723	-144.1131
8906	137.90202	20189.12197	2472.52832	-168.87879
8906	137.90305	20199.23984	2460.91605	-168.88811
8906	137.90408	20204.39554	2461.00716	-165.50211
8906	137.9051	20217.83298	2470.02244	-192.57234
8906	137.90663	20206.11249	2442.24112	-192.63175
8906	137.90766	20210.35829	2446.45126	-173.90686
8906	137.90868	20186.69536	2437.58077	-150.51991
8906	137.90971	20208.99265	2432.29465	-140.24879
8906	137.91023	20201.4	2431.47832	-133.11231
8906	137.91126	20181.89488	2444.37861	-129.84209
8906	137.91178	20188.95691	2425.27669	-135.98403
8906	137.91231	20176.38653	2426.14923	-130.94141
8906	137.91334	20199.12409	2432.56078	-130.98805
8906	137.91436	20207.81861	2437.89129	-141.26255
8906	137.91489	20207.19027	2439.32076	-145.68116
8906	137.91541	20225.02212	2436.65069	-107.66011
8906	137.91594	20224.3667	2432.44325	-87.68568
8906	137.91646	20244.82207	2423.58928	-81.87752
8906	137.91699	20248.68739	2427.4828	-97.97343
8906	137.91751	20249.53887	2412.49719	-113.07392
8906	137.91804	20242.6221	2421.93655	-140.74767
8906	137.91857	20246.65592	2414.57713	-124.44486
8906	137.91959	20231.00103	2403.6199	-127.16639
8906	137.92162	20225.78702	2395.56366	-119.62856
8906	137.92264	20235.43608	2395.21782	-106.48868
9665	143.29367	21166.02489	3589.72836	-34.20315
9665	143.2942	21176.40499	3590.82533	-34.25545
9665	143.29472	21183.87856	3593.44761	-54.23951
9665	143.29525	21161.78584	3593.44757	-60.35347
9665	143.29728	21165.28734	3596.24206	-55.97786
9665	143.2983	21167.3072	3611.60526	-64.32166
9665	143.29985	21172.74125	3602.81311	-74.85152
9665	143.30038	21158.18174	3595.03697	-81.02123
9665	143.3009	21146.14749	3602.02737	-84.40367
9665	143.30143	21122.44515	3611.9604	-107.86005
9665	143.30548	21147.39232	3615.00948	-131.90873
9665	143.308	21139.38535	3648.89647	-107.1528
9665	143.30853	21164.83549	3600.17901	-92.22122
9665	143.30955	21149.22968	3639.82652	-88.59185
9665	143.31008	21134.40669	3612.99506	-126.68916
9665	143.31111	21113.63761	3599.88304	-122.04496
9665	143.31163	21136.34791	3605.35477	-96.54032
9665	143.31216	21145.72376	3610.13853	-90.49248
9665	143.31318	21112.37133	3608.48849	-106.16921
9665	143.31371	21127.99038	3597.62257	-128.83822
9665	143.31423	21121.00243	3602.81215	-155.28019
9665	143.31476	21144.83544	3593.09735	-129.61058
9665	143.31528	21138.31573	3606.39319	-140.11581
9665	143.31581	21131.95598	3617.26997	-114.08836
9665	143.31633	21125.49389	3613.39682	-94.07218
9665	143.31736	21143.46885	3580.54259	-76.87229
9665	143.32039	21153.94678	3586.81735	-46.59005
9665	143.32241	21142.76857	3593.2521	-46.60836
9665	143.32497	21146.56564	3606.06134	-54.29538
9665	143.32599	21139.53222	3580.24027	-36.32258
9665	143.32702	21144.38395	3589.47206	-25.82785
9665	143.32855	21159.51712	3570.24234	-19.9557
9665	143.32957	21157.58888	3588.59651	-16.61677
9665	143.3306	21147.93081	3581.9663	-22.82788
9665	143.33162	21147.50977	3600.43894	-27.16665
9665	143.33315	21175.63943	3588.52018	-5.22824
9665	143.33368	21187.92111	3568.74681	4.49487
9665	143.3342	21153.81032	3562.07665	23.78364
9665	143.33473	21166.88807	3550.62538	17.74565
9665	143.33575	21156.31005	3563.46739	1.44016
9665	143.33678	21160.43249	3556.68231	16.08499
15182	182.96089	19378.25194	3685.2267	-5.36449
15182	182.96141	19361.65482	3694.74537	-6.64338
15182	182.96194	19360.35342	3687.02836	16.13114
15182	182.96247	19362.25615	3686.31424	9.92348
15182	182.96299	19333.19777	3683.34361	12.10737
15182	182.96352	19354.19201	3685.2242	10.2906
15182	182.96454	19350.65962	3728.81402	20.79073
15182	182.96507	19346.18263	3700.07943	30.13375
15182	182.96609	19324.84966	3687.87274	40.05866
15182	182.96662	19330.46333	3689.74143	27.83167
15182	182.96765	19330.80696	3677.57304	47.66106
15182	182.96867	19331.81532	3672.71365	44.23919
15182	182.9697	19348.44493	3699.48215	37.40432
15182	182.97022	19339.78816	3682.07531	15.8414
15182	182.97075	19342.51305	3682.49927	20.69676
15182	182.97127	19340.87542	3686.38511	18.27519
15182	182.9718	19340.87546	3702.53869	34.27262
15182	182.97232	19331.20367	3696.15777	26.50096
15182	182.97285	19326.54473	3696.72695	34.24816
15182	182.97388	19321.1038	3680.74779	50.20329
15182	182.9749	19315.52856	3692.25962	39.76323
15182	182.97593	19298.57746	3683.76432	65.43919
15182	182.97645	19283.74093	3686.64554	53.15551
15182	182.97798	19270.45731	3683.77471	56.35414
15182	182.97901	19272.28714	3680.55597	59.10894
15182	182.98353	19273.11143	3676.1544	59.09416
17560	199.57435	18687.52959	1912.1743	-208.73204
17560	199.57488	18727.1882	1916.11465	-207.17363
17560	199.5759	18743.1274	1907.54645	-195.93423
17560	199.57643	18735.12887	1915.18255	-220.79933
17560	199.57695	18747.59307	1899.66676	-218.09586
17560	199.57848	18762.52425	1878.22524	-181.19683
17560	199.57951	18738.66254	1875.49606	-194.20198
17560	199.58156	18729.86116	1888.15247	-205.97599
17560	199.58258	18741.75944	1876.75362	-208.8063
17560	199.58361	18746.69616	1886.89731	-196.66064
17560	199.58464	18736.10008	1876.97913	-190.5351
17560	199.58516	18748.3543	1869.41891	-213.2005
17560	199.58619	18729.23917	1860.3114	-203.02206
17560	199.58671	18739.75442	1877.24796	-219.27171
17560	199.58724	18737.9277	1893.49541	-224.24703
17560	199.58826	18746.51139	1878.45309	-232.76218
17560	199.58929	18736.75533	1877.89443	-232.77287
17751	200.9659	20356.40223	3631.25173	11.3839
17751	200.96643	20307.03829	3598.5234	-13.02346
17751	200.96695	20329.21214	3621.89292	-17.96929
17751	200.96748	20332.42436	3629.14428	-15.2714
17751	200.968	20302.90936	3591.60647	-30.27547
17751	200.96853	20335.56873	3603.51183	-46.1919
17852	201.73292	18600.48161	3359.92995	163.51705
17852	201.73344	18629.48821	3325.13164	159.10484
17852	201.73397	18629.51988	3316.72261	142.8387
17852	201.73449	18631.50392	3322.01498	148.78841
17852	201.73502	18614.71229	3317.63595	134.50633
17852	201.73554	18614.46194	3303.65109	137.17679
17852	201.73657	18618.43401	3308.36201	149.08436
17852	201.7376	18605.08731	3298.51419	151.76348
17852	201.73812	18586.54561	3301.18159	136.05506
17852	201.73865	18598.86434	3296.47156	115.95219
17852	201.73917	18585.65723	3296.77754	129.51222
19312	212.36943	21665.92716	1744.99465	52.75283
19312	212.36995	21645.88195	1713.642	43.3639
19312	212.37048	21641.15665	1724.65601	49.3668
19312	212.37251	21661.61759	1733.58271	52.73416
19312	212.37353	21650.21859	1730.28827	49.93104
19312	212.37456	21651.07182	1764.18464	42.74774
19312	212.37811	21649.12898	1761.4063	41.90342
19312	212.37864	21651.61291	1758.74127	38.25065
19312	212.37916	21662.55408	1755.66405	43.29611
19312	212.37969	21659.417	1750.19277	33.44747
19312	212.38021	21624.49059	1715.81555	-2.10597
19312	212.38074	21637.64604	1751.10605	-4.64468
19312	212.38126	21619.86714	1760.147	-4.7043
19312	212.38179	21605.90981	1718.96808	-41.27952
19312	212.38583	21643.06271	1740.8033	-53.21037
19312	212.38836	21618.06206	1759.69413	-81.03562
19312	212.38941	21613.74979	1758.96653	-100.93518
19312	212.39446	21621.26316	1756.56619	-96.54418
21733	229.55758	19740.29355	3291.86533	-204.28036
21733	229.5581	19750.12165	3286.4462	-204.32814
21733	229.55863	19762.20893	3280.90302	-193.88354
21733	229.55915	19746.26843	3271.94361	-191.72575
21733	229.55968	19751.99347	3276.36204	-187.00018
21733	229.5602	19738.99718	3271.17933	-187.05523
21733	229.56073	19736.57805	3281.85547	-188.27075
21733	229.56125	19734.28328	3275.92763	-194.45416
21733	229.56178	19745.77425	3270.9963	-211.45843
21733	229.5623	19739.49975	3266.66092	-203.69858
21733	229.56283	19736.24174	3270.11824	-205.0501
21733	229.56335	19709.76364	3263.05321	-230.3692
22743	236.19117	21098.15334	2352.96863	174.33035
22743	236.1927	21078.64902	2311.64892	184.07238
22743	236.19322	21075.43018	2327.41115	173.51905
22743	236.19425	21093.63879	2338.99875	173.49058
22743	236.19528	21097.07186	2303.72832	170.90807
22743	236.1958	21090.65075	2303.73733	166.53683
22743	236.19633	21102.23976	2310.94974	180.18262
22743	236.19735	21092.1436	2310.94966	162.69321
22743	236.19788	21096.98327	2295.5933	164.69627
22743	236.1984	21106.98574	2305.32786	172.34738
22743	236.19893	21089.04254	2287.17442	151.30145
22743	236.20298	21086.6423	2298.40855	159.75005
23258	240.0677	21638.3292	1427.18999	-245.20183
23258	240.06823	21678.83933	1444.2217	-257.45042
23258	240.06875	21663.92817	1439.95482	-265.19508
23258	240.06928	21650.09402	1443.65903	-275.46201
23258	240.0698	21663.59226	1451.18286	-268.79246
23258	240.07033	21656.21952	1435.48143	-265.77133
23258	240.07085	21650.22799	1446.82913	-244.36124
23258	240.07138	21636.56288	1447.55882	-222.79827
23258	240.0719	21635.53929	1428.44419	-222.79872
23258	240.07243	21637.46767	1400.58734	-215.63431
23258	240.07295	21638.07341	1441.58171	-213.20357
23258	240.07398	21664.35035	1452.10353	-198.0178
23258	240.07451	21643.81802	1448.14316	-236.56843
23258	240.07503	21645.49077	1444.31203	-204.3607
23258	240.07556	21626.88851	1467.01098	-241.80234
23258	240.07608	21641.15117	1450.78809	-215.50735
23258	240.07711	21638.73303	1490.61838	-245.29332
23258	240.08116	21621.4765	1459.69259	-237.78436
23258	240.08368	21655.76999	1469.65976	-255.45633
23258	240.08421	21633.35669	1472.26347	-220.25317
23258	240.08473	21603.6455	1446.06307	-231.22283
23258	240.08576	21621.96328	1487.67111	-231.28003
23258	240.08679	21602.4372	1451.8362	-235.42549
23258	240.08881	21611.55201	1465.04394	-238.8537
23258	240.08984	21616.26639	1454.17878	-249.35328
23258	240.09137	21613.72611	1483.9355	-265.0767
23258	240.09239	21609.53607	1452.4175	-259.06566
23258	240.09292	21588.85113	1469.18714	-273.91028
23258	240.09794	21579.9546	1459.30891	-263.75433
23258	240.10097	21617.06752	1447.50721	-259.71294
23258	240.1045	21603.21516	1483.07689	-263.86324
23258	240.10553	21586.33999	1458.16605	-245.88992
23258	240.10655	21616.08148	1493.76291	-262.90164
23258	240.1106	21641.38605	1477.06236	-254.80897
23258	240.11363	21643.41264	1473.00503	-251.53403
23258	240.11415	21616.09175	1471.49644	-289.83132
23258	240.11468	21624.23167	1484.36418	-322.15348
23258	240.1152	21610.99641	1458.7876	-296.53075
27390	269.55264	20160.1363	1841.07681	251.03865
27390	269.55316	20109.02146	1783.23014	213.40192
27390	269.55369	20150.9965	1823.62947	235.91
27390	269.55422	20120.35424	1801.78281	223.60713
27390	269.56027	20125.96363	1807.40794	234.09756
27390	269.56279	20123.47735	1811.46984	243.28309
28417	276.64264	18637.53798	2885.4044	-64.40109
28417	276.64517	18634.27307	2917.72829	-80.20565
28417	276.64619	18625.67805	2903.41418	-90.7587
28417	276.65224	18618.43417	2901.36277	-98.5668
28417	276.65727	18631.50514	2903.63742	-94.19049
28417	276.6593	18660.75596	2912.1355	-92.083
28417	276.66082	18641.62596	2903.99407	-102.63074
28417	276.66135	18637.40334	2899.03168	-105.00995
28417	276.66187	18634.34464	2918.61618	-117.57338
28417	276.6624	18630.83499	2901.05186	-115.82475
28417	276.66343	18635.19248	2916.13963	-108.73125
28417	276.66395	18643.47332	2916.19244	-108.76323
28417	276.66448	18651.94219	2906.67882	-70.296
28417	276.665	18626.04608	2918.11022	-86.19614
28417	276.66553	18617.1656	2929.10173	-78.0709
28417	276.66605	18651.18801	2933.80974	-75.23127
28417	276.66658	18650.47146	2915.36764	-103.4805
28417	276.66763	18622.24056	2906.62169	-127.49364
28417	276.66815	18629.73409	2910.66525	-113.73905
28417	276.66968	18640.93853	2902.32678	-113.76878
28417	276.67421	18626.6371	2881.78305	-113.76931
29380	283.40498	19631.66367	1354.51266	45.67945
29380	283.4055	19630.85143	1360.97573	49.4546
29380	283.40653	19637.39408	1353.21572	27.45846
29380	283.40705	19659.80519	1362.9612	-9.76495
29380	283.40758	19644.56201	1332.8096	-27.6639
29380	283.4081	19647.23082	1355.44872	-8.7748
29380	283.40913	19660.18625	1362.72465	29.40974
29380	283.40966	19664.8569	1346.1674	16.23281
29380	283.41068	19661.07479	1368.39116	38.61102
29380	283.41121	19667.23872	1333.33266	71.64495
29380	283.41223	19631.84398	1305.30662	36.30659
29380	283.41276	19628.54477	1351.49414	40.32964
29380	283.41328	19622.92047	1350.57843	58.67075
29380	283.41381	19638.04546	1368.37443	48.61473
29380	283.41433	19625.34861	1354.4749	55.96662
29380	283.41536	19622.70373	1396.76566	36.70016
29380	283.41589	19635.90115	1373.3202	58.15398
29380	283.41641	19607.60278	1365.95639	73.82331
29380	283.41694	19602.02198	1402.45264	66.43217
29380	283.41746	19596.00102	1359.74237	51.89626
29380	283.41799	19609.20763	1353.44002	90.00642
29380	283.41851	19606.80064	1389.03158	99.98406
29380	283.41904	19614.25743	1368.30935	86.29279
29380	283.41956	19586.52491	1368.56616	73.95677
29380	283.42009	19637.2724	1386.67519	37.61001
29380	283.42111	19610.40655	1341.90195	0.77135
29380	283.42164	19612.44278	1392.12422	35.60052
29380	283.42216	19638.16425	1350.608	-1.41538
29380	283.42269	19627.13997	1340.99462	14.38075
29380	283.42322	19596.272	1389.28511	-20.16237
29380	283.42374	19612.47373	1373.72665	-4.39143
29380	283.42427	19627.39165	1365.47258	33.84836
29380	283.42479	19619.14388	1382.95606	30.80074
29380	283.42532	19592.15559	1409.24079	54.18878
29380	283.42584	19602.20522	1373.25026	61.9395
29380	283.42637	19639.70576	1366.53746	98.4679
29380	283.42689	19622.78331	1371.43879	117.78957
29380	283.42742	19665.07054	1367.88583	112.72898
29380	283.42794	19656.56571	1343.8265	144.42404
29380	283.42899	19658.57156	1341.82411	129.70208
29380	283.42952	19627.87403	1330.49718	115.50873
29722	285.89767	18620.75795	2680.3572	137.75823
29722	285.8982	18599.61022	2704.29357	134.9744
29722	285.89872	18595.18444	2687.53256	125.39965
29722	285.89925	18599.2468	2690.2319	125.35217
29722	285.89978	18582.97079	2679.55611	135.59694
29722	285.9003	18604.77849	2672.75413	146.75182
29722	285.90083	18593.75059	2684.93016	149.07191
29722	285.90338	18576.56836	2687.16743	150.13712
29722	285.9039	18594.0269	2677.74833	150.87491
29722	285.90443	18588.22997	2675.64667	142.34476
29722	285.90495	18587.19232	2684.71825	135.43401
29722	285.90548	18582.07342	2685.82242	117.44448
29722	285.906	18571.86895	2713.8134	89.66806
29722	285.90653	18537.63027	2723.83383	112.83087
29722	285.90706	18565.31276	2698.92097	113.82095
29722	285.90758	18567.40984	2691.45354	152.28479
29722	285.90863	18558.55744	2697.01463	144.19314
29722	285.90916	18567.32619	2700.52158	153.6858
29722	285.90968	18600.53139	2716.22504	153.6737
29722	285.91021	18582.13588	2699.24444	155.80696
29722	285.91073	18596.34635	2695.34147	159.09774
29722	285.91126	18554.96386	2716.13197	187.82703
29722	285.91178	18614.75301	2701.24225	217.61978
29722	285.91331	18567.63301	2706.68003	222.47087
29722	285.91383	18572.91736	2696.72404	229.1408
29722	285.91436	18576.33671	2700.82318	252.51446
29722	285.91488	18538.52269	2674.21328	230.11045
29722	285.91643	18575.98862	2690.62754	240.33521
29722	285.91696	18576.95183	2674.04596	228.86749
29722	285.91748	18567.69798	2666.51452	241.3773
29722	285.91801	18599.38362	2705.55723	262.56323
29722	285.91854	18571.77774	2697.1813	247.82362
29722	285.91906	18585.3213	2657.99905	241.82879
29722	285.91959	18563.83382	2686.10939	244.51033
29722	285.92011	18548.26287	2700.745	218.12276
29722	285.92064	18568.75494	2702.24367	221.42518
29722	285.92166	18564.37617	2696.28269	215.22712
29722	285.92219	18561.70622	2712.2978	209.11966
29722	285.92271	18558.26152	2713.55792	217.97407
29722	285.92374	18561.78201	2717.13035	217.94536
29722	285.92477	18541.49245	2714.66934	217.94548
29722	285.92579	18558.78974	2705.77121	215.17513
29722	285.92682	18553.33065	2710.88075	224.09081
29722	285.92784	18561.66435	2715.38883	221.27217
29722	285.92837	18561.56384	2706.63188	215.06089
29722	285.9294	18564.23292	2714.55433	215.01633
29785	286.35627	20354.58308	4375.76826	-254.02537
29785	286.3573	20377.16066	4339.37903	-254.0547
29785	286.35782	20382.26825	4334.49678	-272.98911
29785	286.35985	20376.9514	4334.79187	-256.72616
29785	286.36088	20376.13186	4348.02337	-262.86849
31629	299.2684	21835.31086	4010.97557	31.34892
31629	299.26893	21863.20859	4025.09266	27.91086
31629	299.26946	21846.1826	4031.91852	25.56455
31629	299.26998	21844.97249	4034.6758	37.35688
31629	299.27051	21837.45644	4035.36209	32.9945
31629	299.27103	21851.40961	4035.12437	30.17608
43803	384.76911	18700.41372	3721.72723	-152.57648
43803	384.76964	18709.83964	3727.9354	-126.17941
43803	384.77066	18693.87471	3744.64144	-126.21561
43803	384.77169	18672.99181	3736.16606	-130.35996
43803	384.77272	18683.92427	3755.94042	-110.68704
43803	384.77324	18696.56595	3748.88811	-104.58558
43803	384.77577	18684.18414	3755.09823	-120.83379
43803	384.77629	18689.21381	3755.12651	-133.09392
43803	384.77682	18696.90043	3754.04356	-99.4822
43803	384.77734	18692.18655	3747.1671	-98.25631
45761	397.91582	19148.62114	3635.89476	-42.29669
45761	397.91634	19117.41149	3627.7959	-40.90344
45761	397.91739	19121.914	3621.95844	-58.98417
45761	397.91792	19120.85779	3596.24644	-35.60821
45761	397.91844	19132.25385	3575.46247	-58.65894
45761	397.91947	19149.22261	3596.62972	-61.94184
45761	397.92199	19125.72983	3599.91995	-78.15231
45761	397.92302	19140.97736	3602.23621	-48.15635
45761	397.92405	19149.36711	3589.12771	-50.90448
45761	397.92457	19161.97446	3591.57045	-23.81182
45761	397.92612	19153.96066	3596.69875	-16.91452
45761	397.92715	19150.47122	3596.93669	10.71872
45761	397.92818	19159.33729	3606.41166	2.98007
45761	397.9292	19176.8619	3586.50435	15.16458
45761	397.93325	19180.94566	3597.25788	23.90146
47091	407.21471	18849.41307	3414.43946	37.20549
47091	407.21524	18862.34495	3405.46531	38.08902
47091	407.21576	18869.13349	3391.26017	16.73736
47091	407.21629	18874.31362	3408.01369	23.76388
47091	407.21681	18879.54504	3388.84608	22.30504
47091	407.21786	18883.80681	3383.03958	19.85118
47091	407.21839	18885.18656	3382.15655	17.04474
48409	416.04468	20457.36989	4030.98382	141.29102
48409	416.0457	20455.12271	4045.72799	152.94629
48409	416.04623	20451.37803	4015.28165	136.34105
48409	416.04675	20450.22446	4001.9987	126.45959
48409	416.04778	20441.24394	4001.53348	120.40201
48597	417.38244	21844.96076	2562.18451	-190.75254
48597	417.38297	21873.96156	2553.34178	-199.71405
48597	417.38349	21878.19776	2574.43226	-199.72216
48597	417.38754	21878.19662	2587.77644	-212.96982
48597	417.38956	21869.08904	2600.04953	-208.13546
50140	427.92041	21928.96392	3488.70495	-40.31592
50140	427.92144	21943.1791	3447.95007	-44.35142
50140	427.92196	21920.77021	3456.98522	-5.76874
50140	427.92301	21926.8438	3468.19992	5.89716
50140	427.92406	21931.68226	3454.27336	23.02082
50140	427.92459	21902.03354	3478.33626	40.95597
50140	427.92511	21910.3244	3466.28385	37.85284
50140	427.92564	21908.74551	3461.51626	33.06844
50140	427.92616	21930.75283	3484.56768	37.18267
50140	427.92719	21931.88005	3468.45617	26.72081
50140	427.92822	21910.08345	3462.21714	19.10271
50140	427.92924	21915.315	3482.82785	38.90313
50140	427.93027	21914.42479	3468.33998	31.96138
50140	427.9313	21919.66332	3475.49972	26.81537
50140	427.93282	21932.26592	3473.2806	0.68202
50140	427.93385	21929.28516	3466.92274	9.13835
50140	427.93487	21924.69763	3487.81006	6.1286
50140	427.9354	21911.00844	3491.18413	11.08109
50140	427.93593	21920.7105	3490.35098	14.15141
50140	427.93645	21914.28987	3485.07561	6.95853
50140	427.93698	21925.28745	3506.45363	17.08766
50140	427.9375	21925.04912	3512.61584	4.52585
50140	427.93853	21914.68436	3496.19676	-4.39265
50140	427.93955	21925.93468	3494.90739	10.20713
50140	427.94358	21927.97519	3520.1898	17.03774
50140	427.94461	21932.84916	3516.72951	9.27148
50140	427.94513	21932.88019	3534.62241	4.29727
50140	427.94566	21925.71811	3528.47599	14.74538
50140	427.94718	21928.13988	3511.10923	29.21754
50140	427.94821	21932.68257	3509.32348	29.20679
50140	427.94924	21940.3267	3506.90836	18.79183
50140	427.95026	21939.04201	3536.29224	11.36424
50140	427.95179	21923.33617	3498.93468	1.36502
52788	446.31104	20183.81089	2258.17422	-46.07618
52788	446.31157	20175.02183	2257.02959	-42.0962
52788	446.31209	20171.72599	2232.42225	-43.60404
52788	446.31262	20166.53281	2230.64987	-58.67094
52788	446.31315	20183.38869	2244.38088	-74.05378
52788	446.31367	20189.75807	2244.53056	-78.41842
52788	446.3142	20145.1773	2208.82538	-106.25858
55916	467.70369	20567.63097	1744.56754	-208.76743
55916	467.70422	20591.47507	1787.01617	-205.08994
55916	467.70474	20577.86442	1774.63165	-215.59313
55916	467.70527	20554.86681	1783.42919	-196.45754
55916	467.70579	20561.17983	1782.71621	-218.0362
55916	467.70632	20562.66077	1767.98271	-230.69632
55916	467.70684	20561.54675	1774.27157	-228.39253
55916	467.70737	20550.53281	1777.29288	-216.31987
55916	467.7084	20563.42727	1761.75899	-221.40311
57383	477.79633	21213.05981	2681.02422	35.18529
57383	477.79738	21231.13686	2662.86413	40.24711
57383	477.79791	21257.70984	2661.98844	34.45421
57383	477.79894	21244.08135	2667.13607	25.88744
57383	477.80096	21257.49112	2676.80635	42.90737
57383	477.80199	21248.67149	2684.38312	42.89413
57383	477.80304	21243.17419	2662.62058	50.53678
57383	477.80356	21230.05557	2661.02315	45.50287
57383	477.80459	21234.97847	2691.33106	39.5884
57383	477.80562	21251.53477	2662.91994	55.4246
57383	477.80664	21249.72786	2673.39185	41.64705
57383	477.80767	21255.31684	2642.63859	54.56973
57383	477.80869	21236.97307	2659.8152	34.67209
57383	477.81022	21247.91744	2662.40482	52.40981
57383	477.81225	21255.46995	2677.6214	43.42364
57383	477.81327	21239.28368	2657.74957	34.32606
57383	477.8138	21219.63558	2662.98615	12.20224
62267	511.04693	20932.04523	4244.76899	-114.40593
62267	511.04846	20965.08572	4266.34132	-118.04635
62267	511.05049	20913.20168	4258.28941	-125.0391
62267	511.05251	20924.52184	4246.30612	-138.69656
62267	511.05404	20921.42615	4258.77815	-128.30896
62267	511.05807	20935.32115	4260.35001	-115.64623
62267	511.06109	20938.65455	4279.46686	-115.68237
62267	511.06262	20919.734	4280.58804	-115.68239
62267	511.06515	20937.99166	4282.907	-131.82494
62267	511.06617	20934.94444	4286.89249	-154.57998
62267	511.0672	20891.07619	4276.26089	-145.46623
62267	511.06873	20909.11329	4307.19498	-144.72838
62267	511.06925	20912.88935	4313.3271	-148.61923
62267	511.06978	20920.25135	4289.89284	-138.31089
62267	511.0703	20922.69498	4303.16557	-143.9104
62267	511.07083	20918.21666	4292.04146	-153.73568
62267	511.07135	20896.59995	4283.47702	-166.57297
62267	511.0724	20924.66759	4319.27321	-157.45065
62267	511.07293	20905.14369	4288.22953	-155.00958
62267	511.07345	20884.61572	4265.94535	-140.19564
62267	511.07398	20908.27651	4289.16527	-128.13457
62556	513.02497	20817.78785	1697.12699	-8.44178
62556	513.0255	20794.45751	1699.98175	5.0184
62556	513.02602	20790.69297	1679.94856	-10.53897
62556	513.02705	20792.14774	1698.92659	-24.32352
62556	513.02757	20790.5597	1698.51396	-34.8866
62556	513.02862	20790.39382	1683.93469	-41.02458
62556	513.02915	20798.18008	1680.51287	-50.6396
62556	513.02967	20797.60998	1650.44584	-77.71814
62556	513.0302	20800.08714	1648.76118	-83.78611
62556	513.03073	20807.62778	1652.01267	-76.97152
62556	513.03125	20792.48802	1643.25319	-89.59373
62556	513.03178	20804.44235	1629.9611	-76.20483
62556	513.0323	20798.08967	1619.08251	-86.44931
62556	513.03283	20807.10604	1621.06872	-79.37448
62556	513.03335	20820.36415	1607.46108	-54.54037
62556	513.03388	20811.48079	1576.44678	-56.67103
62556	513.0344	20786.57998	1573.95862	-29.50445
62556	513.03493	20800.63875	1570.28901	-39.89992
62556	513.03595	20811.87233	1572.7038	-50.30366
62556	513.03648	20819.31823	1588.72707	-23.24451
62556	513.03751	20821.01931	1584.10522	-17.08738
62556	513.03853	20802.60436	1585.54297	2.79712
62556	513.03956	20799.28988	1576.37719	-9.88588
62556	513.04008	20820.59003	1581.55106	0.38643
62556	513.04211	20824.96136	1584.73491	-3.97126
62556	513.04314	20815.99496	1582.46999	-9.17438
62556	513.04416	20825.71021	1595.66362	-19.54335
62556	513.04519	20828.85127	1587.10067	-35.90125
62556	513.04622	20824.88674	1587.8625	-35.94401
62556	513.04724	20817.06748	1581.99824	-9.66907
62556	513.04827	20797.16913	1572.17754	-25.28248
68315	552.39928	20013.63541	3766.35518	139.59591
68315	552.3998	20011.61386	3762.17263	127.05919
68315	552.40033	20033.70843	3749.08461	137.00333
68315	552.40086	20031.16646	3753.84016	124.84474
68315	552.40238	20022.95946	3747.2242	132.58003
68315	552.40491	20032.84687	3751.82832	132.53978
68315	552.40793	20031.78774	3763.69213	140.22524
68315	552.41196	20032.49437	3774.90919	121.52989
68315	552.41499	20027.83156	3765.83041	125.34753
68315	552.41652	20034.6531	3773.98498	113.15651
68315	552.41804	20037.38453	3775.43489	123.60592
69875	562.95663	22067.09485	2512.98062	20.40666
69875	562.95766	22036.19523	2504.94346	29.59237
69875	562.95818	22020.39942	2520.34648	32.20045
69875	562.95871	22008.61615	2497.3863	26.24923
69875	562.95923	22010.64571	2504.40836	17.04582
69875	562.96026	21995.28081	2520.69467	17.01965
69875	562.96129	22006.83209	2510.01982	6.48913
71647	574.81771	19525.68031	3727.00578	234.02797
71647	574.81824	19536.80523	3725.29468	230.18164
71647	574.81877	19534.48379	3732.9549	244.43243
71647	574.81929	19548.96542	3757.4084	274.45475
71647	574.82084	19523.87387	3739.54728	264.22051
75319	600.14865	21785.86726	3221.54595	-29.96782
75319	600.14918	21782.61816	3216.64326	-34.93294
75319	600.1497	21776.06542	3207.24614	-28.85101
75319	600.15023	21777.46789	3213.00767	-22.70498
75319	600.15075	21777.46779	3217.01635	-12.20805
75319	600.15128	21768.44655	3217.47017	-22.71301
75319	600.1528	21766.03063	3219.42845	-9.99741
75319	600.15383	21758.21252	3217.48538	-10.04176
75319	600.15786	21753.86102	3226.95595	-20.42678
75319	600.15938	21765.14301	3218.58508	-59.11115
75319	600.16041	21763.88979	3224.77832	-54.70769
75319	600.16144	21755.61486	3226.97101	-69.77842
75319	600.16296	21758.98319	3235.91211	-80.20865
75319	600.16699	21769.98781	3224.46974	-83.60288
75319	600.16952	21761.27977	3223.99689	-107.53322
77326	613.8201	20336.76598	2485.80258	-102.00979
77326	613.82062	20287.21977	2488.27856	-89.79854
77326	613.82115	20298.98859	2495.96361	-83.72809
77326	613.82167	20308.06384	2494.04594	-45.2724
77326	613.8222	20303.44613	2502.30117	-75.40177
77326	613.82272	20282.82429	2513.69055	-69.52891
80548	636.14262	21631.14448	2712.02183	108.44243
80548	636.14364	21648.91002	2730.42715	82.15433
80548	636.14417	21651.80511	2718.14539	63.13991
80548	636.1452	21678.922	2748.0135	59.05741
80548	636.14572	21661.12687	2696.24466	55.63816
80548	636.14625	21669.50568	2716.67205	40.26486
80548	636.14677	21631.39641	2733.94276	9.65241
80548	636.1478	21637.40062	2710.32883	9.61264
80548	636.14832	21640.1685	2717.52297	7.56393
80548	636.14935	21641.29466	2727.26698	29.00479
80548	636.15037	21663.03966	2713.64813	4.80182
80548	636.1539	21636.75438	2723.97016	-20.51546
80548	636.15493	21640.62004	2704.56511	-20.53925
81411	641.9495	21480.7877	3741.70528	-235.7802
81411	641.95003	21503.78134	3775.05675	-238.18632
81411	641.95056	21524.22101	3784.13912	-230.7675
81411	641.95108	21520.64444	3789.07898	-235.84948
81411	641.95161	21525.6232	3791.43464	-226.75791
81411	641.95213	21524.66956	3821.91592	-226.80297
81411	641.95266	21513.90751	3807.19297	-241.43491
81942	645.63912	19100.26121	1922.48029	-59.08106
81942	645.63965	19119.14047	1929.10537	-58.11571
81942	645.64017	19114.32192	1940.96656	-54.85825
81942	645.6407	19078.10776	1896.22824	-85.3197
81942	645.64123	19096.17144	1921.29592	-80.15846
81942	645.64175	19083.30515	1919.52682	-88.22299
81942	645.64228	19064.72355	1906.82295	-91.5053
81942	645.64383	19073.92073	1923.74349	-97.64443
81942	645.64435	19089.02954	1924.93926	-105.62274
81942	645.64488	19051.16488	1892.6374	-123.95953
82584	650.02523	19715.93861	1932.23859	-176.01638
82584	650.02575	19682.912	1928.13243	-168.25359
82584	650.0268	19687.75758	1901.47149	-165.4659
82584	650.02733	19665.91267	1899.92287	-176.60943
82584	650.02785	19660.53251	1894.67773	-176.6187
82584	650.02838	19672.20006	1883.7693	-152.20923
82584	650.0289	19665.3063	1869.89088	-164.5581
82584	650.02943	19651.08923	1890.35034	-153.35785
82584	650.02995	19649.01011	1905.58277	-139.16257
82584	650.03048	19643.86273	1891.07164	-160.18826
82584	650.0315	19659.76955	1893.27267	-160.2016
82584	650.03203	19663.13531	1900.35107	-163.58808
82584	650.03255	19658.63462	1888.1992	-157.45516
82584	650.03308	19679.78676	1905.1129	-168.88632
82584	650.03361	19671.62604	1876.32403	-155.60934
82584	650.03413	19675.47025	1882.07322	-174.90554
82584	650.03466	19668.60884	1889.67159	-168.02565
82584	650.03518	19687.13447	1890.57296	-179.88958
82584	650.03571	19676.87033	1859.89414	-200.51024
82584	650.03623	19681.316	1881.93212	-228.12217
82584	650.03676	19654.01182	1882.54259	-210.81118
82584	650.03728	19687.84231	1907.2438	-216.54609
82584	650.03781	19659.74629	1893.55579	-189.35858
82584	650.03833	19704.96358	1891.27227	-205.13106
82584	650.03886	19704.81031	1896.19638	-226.7929
82584	650.03938	19720.95802	1892.43278	-221.90095
82895	652.01342	19687.22021	3381.86039	-115.85595
82895	652.01495	19683.44647	3393.99542	-138.29446
82895	652.01548	19676.80131	3394.68313	-142.14309
82895	652.0165	19667.95829	3395.34161	-134.03601
82895	652.01753	19664.7705	3401.47382	-129.67254
82895	652.01855	19651.66465	3400.58668	-137.33489
82895	652.01908	19639.27357	3389.09434	-137.34666
82895	652.01961	19632.61719	3377.0648	-141.02826
82895	652.02013	19643.40281	3383.03525	-129.12422
82895	652.02116	19652.23648	3411.76127	-127.25675
82895	652.02168	19641.87568	3404.2187	-131.66647
82895	652.02221	19644.30691	3404.62113	-148.0245
82895	652.02273	19654.39459	3403.86209	-144.63325
82895	652.02326	19649.01795	3408.23187	-143.33991
82895	652.02378	19652.52895	3396.76208	-143.39057
82895	652.02431	19630.04107	3409.51334	-163.94454
82895	652.02483	19618.76411	3390.84665	-153.91628
82895	652.02536	19618.59034	3391.32078	-144.49431
82895	652.02639	19602.99008	3365.54995	-132.80772
82895	652.02741	19615.40093	3386.78162	-132.83259
82895	652.02894	19616.5215	3362.46979	-118.55272
82895	652.02946	19604.86581	3411.78401	-106.76273
82895	652.02999	19599.93829	3381.97955	-78.40791
82895	652.03051	19614.19627	3381.17618	-96.7645
83488	656.12465	21220.73363	3851.74183	123.18305
83488	656.12517	21194.00808	3830.08529	120.38848
83488	656.1257	21197.69545	3838.85268	124.76542
83488	656.12622	21199.62116	3828.43918	143.06944
83488	656.12725	21197.74751	3834.07635	150.81083
83488	656.12777	21172.39065	3840.06177	144.89922
83488	656.13182	21193.99487	3842.17817	134.4047
83488	656.13837	21180.53744	3865.68891	133.2002
83488	656.1389	21167.80064	3852.1198	130.88416
83488	656.13942	21141.11586	3824.70907	112.79404
83488	656.13995	21182.31514	3841.22121	108.54054
83488	656.14247	21177.45952	3839.63314	117.03491
83488	656.1445	21173.82927	3826.59848	107.72515
83488	656.14503	21170.91524	3827.27819	115.4538
83488	656.14905	21184.53335	3805.9945	115.43538
88812	693.14261	21677.39129	4142.02984	-54.02999
88812	693.14313	21666.96057	4106.87398	-51.40995
88812	693.14366	21645.6777	4104.05345	-79.68005
88812	693.14418	21666.5279	4095.99849	-74.64689
88812	693.14573	21659.27531	4109.97132	-78.05659
89859	700.35408	19931.99284	1914.82034	-112.19062
89859	700.3546	19935.09746	1918.07383	-100.42219
89859	700.35565	19910.90897	1908.13234	-108.68485
89859	700.35618	19916.04077	1906.5522	-105.32272
89859	700.36273	19909.96412	1931.28991	-131.03908
89859	700.36776	19878.66003	1948.17393	-159.9069
91938	714.79349	19537.73903	1889.53063	195.64059
91938	714.79402	19559.0863	1905.35305	166.16755
91938	714.79857	19566.90414	1910.59544	170.46861
91938	714.80009	19559.531	1888.2595	153.02073
91938	714.80312	19572.91172	1893.77841	138.4385
91938	714.80515	19566.40454	1888.58993	99.68297
94299	731.60735	19332.85088	4243.73575	-97.45306
94299	731.60788	19337.89788	4225.72235	-85.29739
94299	731.6089	19344.23063	4226.62915	-79.69964
94299	731.60943	19341.78375	4231.46444	-64.61637
94299	731.60996	19333.84344	4220.43405	-60.83307
94299	731.61048	19324.52925	4261.53078	-60.85899
94299	731.61101	19322.92299	4245.52351	-60.85885
94299	731.61603	19321.37772	4246.61493	-71.35851
94299	731.62106	19337.73179	4235.80607	-68.06662
94299	731.62559	19340.29813	4221.07771	-48.5425
96867	749.17313	18891.13657	3144.8624	0.01816
96867	749.17516	18901.41475	3112.43455	-14.47
96867	749.17569	18930.07131	3119.67741	-8.54126
96867	749.17771	18961.39886	3112.40417	5.84316
96867	749.17924	18942.16341	3125.95128	12.91651
96867	749.18127	18912.0482	3116.65655	0.8176
96867	749.18581	18923.48096	3132.07993	-9.60116
96867	749.18734	18932.79	3135.47202	-4.53924
96867	749.18837	18931.73709	3142.96049	-4.55292
96867	749.18989	18936.40532	3164.22765	-8.32585
96867	749.19142	18924.99203	3152.54253	-8.33762
96867	749.19195	18922.13267	3167.31402	-15.15321
96867	749.19247	18905.42245	3153.31962	-23.8313
96867	749.193	18942.47133	3176.67199	13.24995
96867	749.19402	18936.90533	3163.96054	2.73455
96867	749.19505	18920.02399	3188.31669	-1.46068
96867	749.19607	18928.44938	3161.68945	8.8576
96867	749.1976	18921.76993	3163.62821	33.58409
96867	749.19913	18924.15687	3160.9722	44.03346
96867	749.20015	18892.60977	3150.00024	59.22302
96867	749.20118	18902.51094	3170.00907	48.80683
96867	749.20271	18925.32691	3183.25131	86.39529
96886	749.34246	18951.85119	3175.18989	252.38481
96886	749.34351	18882.94478	3184.28324	242.38999
96886	749.34404	18904.9897	3177.81648	235.50078
96886	749.34456	18896.98586	3185.66326	196.8419
96886	749.34609	18907.09089	3220.43838	187.27689
96886	749.34862	18908.86739	3194.04894	148.61405
96886	749.34964	18935.70253	3215.62465	148.5566
96886	749.35017	18927.37589	3213.46295	145.16084
96886	749.35119	18911.55412	3212.07349	128.95694
96886	749.35222	18904.35501	3200.25566	124.59755
96886	749.35375	18910.75575	3243.2569	95.58714
96886	749.35477	18904.14691	3237.43916	79.47762
96886	749.3563	18904.238	3251.00608	111.5032
96886	749.35733	18915.32468	3258.04005	121.66379
96886	749.35935	18926.81923	3206.44082	157.34868
96886	749.36038	18939.36696	3202.42602	157.34384
96886	749.36141	18935.82006	3204.62547	151.21374
96886	749.36593	18932.13771	3242.51709	160.93738
96886	749.36646	18926.72023	3253.00923	164.10679
96886	749.36899	18931.97428	3274.81629	158.40663
96886	749.37101	18947.55388	3256.85767	148.07857
96886	749.37254	18923.03115	3246.43687	177.82452
96886	749.37406	18924.73436	3242.53328	188.23424
96886	749.37459	18925.23341	3242.53626	194.4249
96886	749.37561	18930.20359	3253.10494	199.51194
96886	749.37614	18971.27311	3234.13093	217.43195
96886	749.37717	18976.35638	3223.94486	223.13372
96886	749.37819	18957.41699	3237.61071	261.71335
96886	749.37872	18978.83762	3251.42255	299.57708
96886	749.37924	18991.65293	3220.39881	299.55255
96886	749.38027	18991.62024	3197.74413	311.29568
96886	749.3813	19022.34064	3240.68875	340.11471
96886	749.38282	18980.2494	3227.62224	342.03672
96886	749.38335	18981.96292	3231.6108	363.48502
96886	749.38387	18991.03021	3185.82855	327.3093
96886	749.38492	18992.41426	3209.34125	323.50363
96985	749.99599	22175.62959	1092.18171	251.27953
96985	749.99651	22165.30549	1095.33825	254.29085
96985	749.99704	22140.25635	1058.98092	226.24885
96985	749.99756	22164.65018	1068.99922	215.8808
96985	750.00109	22153.86491	1080.43813	217.87146
96985	750.00212	22155.68178	1079.19016	217.84752
96985	750.00264	22143.37634	1062.50099	205.92837
96985	750.00467	22149.52115	1073.89609	197.36353
98250	758.66115	18159.26767	3547.50888	-101.09736
98250	758.66218	18155.01944	3463.69406	-106.98034
98250	758.6627	18159.87676	3510.98957	-131.45625
98250	758.66323	18129.44452	3484.50429	-125.75941
98250	758.66425	18133.12833	3489.02077	-121.42888
98250	758.66528	18125.44885	3495.30232	-115.37281
98250	758.6663	18132.19696	3521.933	-104.20269
98250	758.66733	18102.92402	3518.46049	-104.23865
98250	758.66836	18100.90667	3547.63805	-109.80248
98250	758.66938	18094.23934	3548.48008	-90.38427
98972	763.47597	18580.88141	4345.04076	-184.97861
98972	763.47649	18602.50738	4341.25392	-186.22464
98972	763.47702	18590.93122	4338.94931	-190.64663
98972	763.47754	18590.86609	4354.38745	-174.60488
98972	763.47807	18573.86316	4338.11101	-212.84866
101821	782.85127	20327.09268	2106.01325	-39.52927
101821	782.85179	20313.98192	2113.76375	-39.52916
101821	782.85232	20324.24639	2086.03425	-27.34569
101821	782.85437	20322.42928	2077.07577	-35.08898
101821	782.85942	20333.42281	2089.41541	-29.59215
101821	782.86445	20328.63571	2086.08396	-25.22226
101821	782.86497	20322.7768	2090.91242	-10.57352
101821	782.866	20328.67457	2093.7637	-20.2366
101821	782.86653	20326.5177	2070.3332	-12.683
101821	782.86755	20319.64019	2063.2142	-0.26643
103608	795.1786	19003.38218	4215.59695	264.46801
103608	795.17913	18978.25174	4211.53745	264.40973
103608	795.18016	19004.97899	4244.76329	285.05714
103608	795.18118	18981.71783	4226.31107	288.03485
103608	795.18171	18980.69325	4210.54832	272.14864
103608	795.18223	18965.88897	4213.93743	275.40902
103608	795.18276	18955.72725	4213.33646	275.39495
103608	795.18328	18963.63314	4220.02957	271.55236
103608	795.18431	18960.36575	4221.07796	274.96372
103608	795.19136	18963.87284	4233.30265	268.80902
103608	795.19539	18967.4028	4219.08523	255.07709
103608	795.19641	18959.35657	4222.30651	244.56513
103608	795.20296	18976.38569	4231.2532	244.50501
103608	795.20849	18974.4202	4223.8334	268.39512
103661	795.5454	21761.99086	1773.87341	136.53893
103661	795.54593	21761.69211	1768.15266	126.01692
103661	795.54696	21770.08036	1775.08434	128.75377
103661	795.54801	21755.68852	1767.80178	139.18355
103661	795.54903	21767.67884	1761.65564	142.56997
103661	795.54956	21773.64109	1771.95532	140.19395
103661	795.55058	21777.00251	1766.16162	132.99948
103661	795.55161	21782.31167	1755.66054	134.95634
103661	795.55264	21769.84988	1750.89865	110.24689
103661	795.55366	21784.07345	1762.33379	108.21634
103661	795.55469	21782.07118	1748.71093	115.27869
103661	795.55521	21785.05557	1771.26072	104.97373
103661	795.55574	21770.87408	1756.57432	94.51373
103661	795.55626	21779.53852	1762.52528	105.02481
103661	795.55729	21767.94739	1760.83053	103.38882
103661	795.55782	21772.80056	1760.83059	122.3777
103661	795.55887	21786.20745	1768.87379	118.9688
103661	795.55989	21791.18631	1749.97514	104.61017
103661	795.56042	21793.16634	1743.73302	96.9246
103661	795.56094	21779.49411	1750.32983	66.14854
103661	795.56147	21776.01171	1768.38155	54.72764
103661	795.56199	21797.69597	1765.56129	76.47101
103661	795.56252	21781.1493	1760.44165	77.04987
103661	795.56304	21778.68314	1761.11497	82.17331
103661	795.56357	21778.7099	1761.11503	65.8058
103661	795.5641	21793.49673	1767.83935	72.85837
103661	795.57115	21789.26501	1753.46181	83.26689
103928	797.39543	19918.69224	2334.27578	169.35873
103928	797.39596	19928.09773	2312.12732	172.70695
103928	797.39648	19923.41652	2321.32004	167.22098
103928	797.39701	19932.55051	2320.10846	174.05185
103928	797.39753	19888.47397	2345.30181	138.29477
106573	815.68933	18246.96514	1430.13582	165.35621
106573	815.69036	18242.86683	1401.19283	165.33097
106573	815.69088	18236.84878	1400.42846	163.80286
106573	815.69191	18228.28148	1402.80321	160.16059
106573	815.69243	18238.75854	1404.92966	157.65966
106573	815.69296	18224.16675	1401.29195	147.2255
106573	815.69348	18213.99861	1404.87176	145.62315
106573	815.69401	18205.25048	1415.81833	165.24075
106573	815.69453	18224.84285	1411.21838	175.62543
106573	815.69606	18224.42407	1419.30914	178.97128
106573	815.69659	18226.10493	1413.1828	170.42124
106573	815.69711	18228.90725	1433.81487	176.10434
106573	815.69764	18225.53285	1415.18763	175.39579
106573	815.69816	18217.03753	1410.46813	167.45613
106573	815.69869	18208.4035	1409.07052	169.7314
106573	815.69921	18231.82969	1410.80731	160.37452
106573	815.69974	18222.93427	1400.84284	170.7709
106573	815.70326	18222.93464	1399.41596	170.76339
106573	815.70579	18225.01175	1404.59509	170.76344
106573	815.71182	18218.37028	1416.59231	175.82824
106573	815.71785	18229.69305	1415.85056	165.32398
106573	815.72188	18204.62962	1395.66729	159.39965
106573	815.7249	18204.70996	1397.34026	167.80123
106573	815.72693	18216.25409	1403.89193	180.51333
106573	815.73046	18212.79042	1404.118	183.89242
106573	815.73349	18215.27679	1405.28581	165.47807
106787	817.30808	19359.17286	3283.50095	-97.84117
106787	817.3091	19345.80322	3279.43749	-117.93846
106787	817.30963	19357.64394	3285.72546	-106.09909
106787	817.31115	19379.99884	3285.95157	-99.59717
106787	817.31218	19347.42585	3290.30764	-94.89273
106787	817.3127	19368.0722	3312.88665	-88.13514
106787	817.31323	19354.03851	3285.19202	-77.83462
106787	817.31426	19351.17119	3287.14605	-77.88213
106787	817.31528	19369.83739	3283.85193	-76.3007
107805	824.34588	21223.07169	2475.22089	28.33922
107805	824.3464	21219.35445	2459.83018	16.50815
107805	824.34693	21220.18167	2450.94448	3.88523
107805	824.34745	21213.57135	2438.64141	-10.04567
107805	824.34798	21186.87792	2441.94313	-26.37453
107805	824.3485	21195.17616	2419.04344	-34.87998
107805	824.34903	21222.87669	2433.43513	-25.79712
107805	824.35005	21196.85262	2444.25414	-31.16152
112721	858.29593	21330.20789	4077.53067	51.82371
112721	858.29646	21296.87739	4039.48262	13.21572
112721	858.29698	21295.10171	4046.38224	17.0143
112721	858.29901	21301.30574	4035.37161	9.82667
112721	858.30204	21305.11067	4033.97822	15.95641
112721	858.30306	21276.8653	4011.00763	-21.0675
118171	895.46948	19990.71645	4185.25015	115.25879
118171	895.47001	19987.6669	4181.02774	109.0807
118171	895.47053	19983.02489	4176.19795	104.36732
118171	895.47106	19981.49913	4162.86564	86.16427
118171	895.47158	19993.69811	4157.00714	83.4222
118171	895.47261	19995.88592	4155.66806	51.31838
118171	895.47313	19987.54787	4157.52403	59.0874
118171	895.47366	19978.47614	4170.98838	78.02961
118171	895.47418	19976.44106	4171.89926	64.3403
118171	895.47471	19965.29052	4174.78711	71.5518
118182	895.56223	19207.25733	4069.17963	58.56487
118182	895.56276	19205.16329	4048.56087	36.3028
118182	895.56328	19214.01643	4058.83815	36.25199
118182	895.56431	19223.79065	4084.10972	45.26678
118182	895.56834	19224.63404	4092.06484	45.22597
119737	906.06055	21892.42958	2898.62495	-58.44768
119737	906.06108	21907.99737	2822.8173	-29.58344
119737	906.06213	21885.97194	2834.42467	-67.82392
119737	906.06265	21897.04707	2830.66405	-80.45922
119737	906.06318	21860.3136	2838.08316	-117.3678
119737	906.06423	21861.30931	2843.51662	-104.52651
119737	906.06525	21862.27701	2864.06308	-100.92644
119737	906.06578	21865.84417	2874.78115	-104.24566
119737	906.0668	21869.94414	2852.76644	-110.41697
119737	906.06833	21851.24515	2864.18967	-114.19251
119737	906.07288	21856.94324	2870.25281	-110.82576
120880	913.61948	18394.09909	4158.18541	-121.91587
120880	913.62001	18356.09003	4168.45348	-120.63055
120880	913.62053	18371.03602	4170.14758	-130.17306
120880	913.62106	18340.80421	4168.41589	-141.35007
120880	913.62158	18364.95471	4181.26068	-133.33814
120880	913.62561	18343.26307	4184.48188	-141.6712
120880	913.62614	18349.49691	4187.0313	-141.7229
120880	913.62666	18360.43747	4191.35547	-149.83169
120880	913.62719	18368.9778	4185.74826	-161.38256
120880	913.62771	18360.79278	4175.44502	-154.92216
120880	913.62824	18357.94822	4190.23402	-154.96735
120880	913.63076	18351.99063	4187.61072	-171.27737
120880	913.63129	18337.31415	4181.78558	-184.19077
120880	913.63634	18340.5343	4201.30588	-173.92962
120880	913.63937	18340.77997	4203.00479	-178.31535
120880	913.63989	18364.21499	4223.62808	-163.14481
121882	920.49783	19231.32369	2159.06898	6.10299
121882	920.49835	19264.76302	2129.81275	3.49978
121882	920.49888	19264.76298	2140.74837	5.09676
121882	920.4994	19259.46079	2142.27288	9.46224
121882	920.50043	19267.04639	2146.38563	9.41809
121882	920.50196	19267.13856	2136.82249	23.17803
121882	920.50348	19268.84544	2171.92566	32.90899
121882	920.50401	19260.90221	2146.58753	51.60526
121882	920.50453	19253.17564	2173.59498	52.30619
121882	920.50506	19263.83923	2162.16719	52.26522
121882	920.50558	19255.06063	2175.50299	33.18323
121882	920.50611	19232.50515	2168.69485	33.16132
121882	920.50663	19223.54277	2158.05031	43.26387
121882	920.50716	19233.95851	2189.13012	9.02059
121882	920.50819	19232.21966	2177.81266	-20.50553
121882	920.50971	19235.39201	2179.44621	-0.40734
121882	920.51124	19250.41057	2189.02832	-6.41669
121882	920.51176	19249.92559	2165.46161	-7.55009
121882	920.51229	19247.63574	2139.73258	-13.47787
123079	928.58034	21343.75305	2571.09687	-82.87709
123079	928.58087	21343.33318	2570.12362	-75.14233
123079	928.58139	21320.42079	2563.00438	-85.35851
123079	928.58192	21324.52865	2571.72802	-107.7091
123079	928.58344	21329.39339	2574.09319	-106.19998
123079	928.58397	21324.80946	2565.87681	-111.07085
123079	928.58502	21326.41319	2560.27831	-117.8048
123079	928.58554	21331.49391	2573.33626	-122.22901
123079	928.58607	21326.65703	2568.73141	-108.4617
123079	928.58659	21320.82697	2555.3849	-103.39894
123079	928.58762	21321.54042	2573.5976	-95.00747
123079	928.58865	21324.48057	2561.43427	-108.79772
123079	928.58967	21312.09485	2571.84546	-113.17041
123079	928.5907	21297.80926	2567.88039	-125.65334
123079	928.59273	21303.41024	2569.95876	-136.20549
124890	940.58551	21720.02083	1297.63981	114.26865
124890	940.58603	21726.04219	1287.70188	116.26572
124890	940.58656	21728.52319	1285.40327	116.23681
124890	940.58708	21728.52325	1292.82675	105.73609
124890	940.58761	21719.04065	1279.02324	110.74287
124890	940.58813	21720.73704	1278.75908	109.22363
125618	945.40077	21659.08479	1837.55344	124.07257
125618	945.40129	21669.95154	1861.48011	155.34461
125618	945.40182	21657.90347	1861.77239	160.16034
125618	945.40235	21677.75364	1858.09722	121.76269
125618	945.40287	21665.07182	1844.6162	129.83894
125618	945.4034	21651.77118	1851.5999	135.88708
125618	945.40392	21654.88174	1866.90787	120.98928
125618	945.40445	21656.71874	1870.12119	113.23143
130905	981.92716	20065.11797	774.52661	-160.35056
130905	981.92768	20031.48574	783.1236	-177.12228
130905	981.92821	20046.39623	771.95159	-148.19884
130905	981.92874	20043.253	782.78798	-148.20448
130905	981.92926	20014.73811	759.31556	-157.84946
130905	981.92979	20044.08161	779.17469	-154.58043
130905	981.93081	20021.58706	760.02028	-164.82961
130905	981.93184	20054.61497	767.12795	-158.05143
130905	981.93336	20046.73433	769.73993	-151.90971
130905	981.93589	20052.39984	770.35029	-162.40006
130905	981.93742	20033.46041	766.19994	-148.84926
130994	982.71747	20621.14009	2029.55611	78.88561
130994	982.718	20564.25866	2004.17252	82.20032
130994	982.71902	20580.56632	2007.77135	92.57673
130994	982.71955	20567.9908	2005.29197	105.907
130994	982.72057	20565.3703	2012.72655	108.91971
130994	982.72213	20534.55684	1988.8419	123.75981
130994	982.72418	20585.19466	2005.6413	122.10882
130994	982.7247	20541.2326	1975.03387	100.92941
130994	982.72523	20545.05583	1988.22859	108.67718
130994	982.72625	20570.80621	1998.84736	122.78201
135153	1010.24847	21663.12399	3395.09302	-52.84432
135153	1010.24899	21677.82388	3435.64205	-52.86571
135153	1010.24952	21702.48321	3423.81406	-42.85008
135153	1010.25055	21680.459	3393.20387	-40.68282
135153	1010.25157	21681.8066	3412.07883	-37.92474
135153	1010.2531	21683.00919	3421.94365	-59.38289
135153	1010.25412	21664.40875	3412.4408	-59.3931
135153	1010.25465	21689.01425	3432.6877	-49.31843
141758	1055.48648	20800.25317	2619.01117	-158.10315
141758	1055.48701	20854.46054	2653.98494	-158.11283
141758	1055.48753	20844.46816	2634.92187	-180.83622
141758	1055.49808	20848.67105	2629.06446	-170.40668
141758	1055.50311	20859.13526	2625.00279	-172.77701
141758	1055.50464	20856.35607	2634.10216	-166.64516
141758	1055.50817	20854.83073	2629.5751	-194.30553
149209	1105.84129	20860.7603	3621.16538	-157.4489
149209	1105.84181	20873.27452	3638.04169	-161.03316
149209	1105.84234	20867.65444	3635.31514	-157.0098
149209	1105.84286	20873.25578	3616.86093	-178.33705
149209	1105.84339	20866.82532	3624.49463	-183.36638
149209	1105.84391	20869.99418	3619.77754	-167.84434
149209	1105.84444	20861.42515	3604.80247	-145.52061
149209	1105.84496	20880.16856	3609.18052	-149.33693
149209	1105.84549	20859.52929	3624.51976	-141.76559
149209	1105.84601	20861.12957	3594.9174	-137.78616
149209	1105.84654	20861.84892	3597.93847	-116.28514
149209	1105.84706	20878.40552	3600.98923	-114.32024
149209	1105.84759	20875.66394	3606.53015	-118.52124
149209	1105.84812	20862.62166	3587.34207	-133.4792
149209	1105.84864	20871.24601	3563.33933	-133.53539
149209	1105.84917	20880.30413	3595.92101	-125.97937
149209	1105.84969	20885.60455	3583.96683	-140.07508
149209	1105.85022	20894.57701	3577.28451	-133.88072
149209	1105.85074	20899.85793	3591.22665	-132.9627
149209	1105.85127	20905.95291	3565.29196	-134.25824
149209	1105.85179	20908.71259	3553.829	-146.33213
149209	1105.85232	20905.465	3560.48467	-149.14513
149209	1105.85284	20910.86134	3555.90128	-144.78312
149209	1105.85337	20933.17928	3562.30831	-130.36597
149209	1105.85439	20930.74962	3554.98146	-146.60871
149209	1105.85492	20923.07228	3565.53962	-131.76117
149209	1105.85595	20929.17352	3553.71546	-131.7662
149209	1105.85647	20968.59041	3572.07766	-124.29873
149209	1105.8575	20953.46041	3531.09578	-124.32009
149209	1105.85802	20952.20587	3581.01587	-147.32915
149209	1105.86207	20953.93808	3550.20265	-151.67239
149771	1109.68469	18608.55084	2080.66158	-271.19646
149771	1109.68521	18579.74473	2062.74802	-287.3415
149771	1109.68574	18566.09331	2050.13092	-270.18149
149771	1109.68626	18567.86121	2066.18981	-278.63019
149771	1109.68979	18573.80518	2053.80615	-278.64828
149771	1109.69182	18582.58378	2077.08674	-278.64784
149771	1109.69284	18583.51413	2073.28723	-270.89834
152363	1127.10601	18551.69104	1534.48894	-235.75288
152363	1127.10704	18575.34064	1537.22746	-241.98434
152363	1127.11057	18562.67793	1544.11065	-244.33697
152363	1127.12012	18560.53484	1543.45418	-256.61014
152363	1127.12315	18566.55781	1555.82059	-260.99239
152363	1127.12417	18595.23682	1552.73972	-251.1248
152363	1127.1307	18553.86327	1531.70584	-288.43168
152363	1127.13123	18560.01686	1534.12421	-274.77438
152363	1127.13276	18556.57103	1539.54785	-285.29229
152363	1127.13528	18557.74306	1532.07465	-271.59088
152363	1127.13631	18569.69768	1527.78959	-273.63835
152363	1127.13683	18577.57664	1558.28619	-271.78664
152363	1127.13836	18570.66839	1559.29862	-242.58443
152363	1127.14139	18577.74222	1551.86028	-242.62665
152363	1127.15044	18530.75787	1562.80065	-220.9253
152363	1127.15347	18516.49847	1528.05706	-246.065
152363	1127.15399	18560.40491	1544.89022	-249.46501
152363	1127.15752	18557.77351	1532.58527	-245.97527
152363	1127.15805	18551.65774	1524.30761	-243.38784
152363	1127.15857	18562.16783	1538.10288	-243.42182
152363	1127.1591	18534.488	1541.73407	-256.66915
152939	1131.02615	18726.59086	1094.26671	-122.40644
152939	1131.02668	18739.39137	1080.64127	-112.07341
152939	1131.0272	18750.02374	1083.81057	-111.15901
152939	1131.02773	18738.57656	1074.53635	-111.1696
152939	1131.02825	18742.96441	1116.88285	-98.41106
152939	1131.02878	18742.9658	1053.48054	-101.52929
152939	1131.0298	18718.50658	1063.57367	-111.57705
153585	1135.58416	19867.44484	1536.74338	133.06451
153585	1135.58468	19869.04312	1491.11818	109.82553
153585	1135.58573	19857.3562	1506.19789	97.89133
153585	1135.58626	19854.71735	1508.19667	95.3934
153585	1135.58731	19862.94695	1496.96066	104.20444
153585	1135.58783	19855.85486	1505.46389	101.09096
153585	1135.58888	19841.50226	1496.42317	94.14194
153585	1135.59543	19852.65024	1509.79771	100.23655
153585	1135.59646	19836.94683	1511.38599	110.52678
155621	1149.73313	21774.92134	3018.51096	-145.3044
155621	1149.73366	21832.11908	2999.94425	-159.07321
155621	1149.73418	21832.33215	3003.00724	-190.45177
155621	1149.73521	21810.32855	2991.39646	-216.04511
155621	1149.73573	21819.56455	2988.01589	-224.22844
155621	1149.73676	21817.95005	2989.41107	-237.00461
155621	1149.73729	21810.48321	2976.23935	-259.5433
155621	1149.73781	21799.99511	2988.11402	-244.6671
155621	1149.73834	21797.13012	2965.47448	-247.9575
155621	1149.73886	21816.60037	2981.07159	-247.97295
157191	1160.19255	19070.01386	2726.22498	-28.49573
157191	1160.19308	19090.66348	2710.36792	-19.16231
157191	1160.1936	19088.02881	2702.68129	-13.73324
157191	1160.19413	19076.15819	2683.88165	1.60571
157191	1160.19465	19071.39636	2730.80632	-4.10971
157191	1160.19518	19061.46569	2716.63457	20.41169
157191	1160.1957	19057.38644	2735.31833	-5.3397
157191	1160.19623	19067.76287	2706.41015	4.90436
157191	1160.19675	19049.70682	2709.55365	-0.65601
157191	1160.19728	19046.38022	2696.2983	4.02934
157191	1160.1978	19055.47539	2689.78361	-2.09638
157191	1160.19883	19046.76639	2701.39384	-0.06652
157191	1160.19936	19066.49359	2731.62051	2.43889
157191	1160.19988	19064.1185	2723.65918	-29.44316
158301	1167.55771	21068.25769	2595.33862	6.09341
158301	1167.55824	21073.66829	2593.54337	-12.21133
158301	1167.55876	21063.76043	2607.44718	-10.282
158301	1167.55979	21052.40406	2591.04501	-17.83834
158301	1167.56082	21041.68971	2589.09122	20.24774
158930	1172.07571	20358.4709	2149.76866	-180.22597
158930	1172.07624	20326.69888	2154.27449	-190.39422
158930	1172.07676	20339.15337	2141.168	-186.00553
158930	1172.07729	20331.71398	2141.32255	-184.25464
158930	1172.07782	20341.4237	2149.89463	-190.42168
158930	1172.07834	20342.47313	2137.78844	-196.62107
158930	1172.07887	20337.55034	2142.8012	-196.62212
158930	1172.07939	20335.4862	2137.75862	-189.88709
158930	1172.07992	20348.26722	2130.20197	-188.32237
158930	1172.08044	20328.46965	2151.01295	-179.7247
158930	1172.08097	20326.41778	2147.14788	-188.94095
159903	1178.99203	21724.22995	4398.35939	174.77427
159903	1178.99256	21728.88392	4395.35225	172.71161
159903	1178.99308	21745.21197	4403.95325	162.3826
159903	1178.99461	21747.17499	4421.57117	181.84227
159903	1178.99814	21755.27884	4418.29304	194.40789
159903	1179.00217	21748.6337	4425.05068	190.96476
159903	1179.00369	21748.63364	4422.87036	205.64249
159903	1179.00422	21732.09666	4434.12071	205.64222
159903	1179.00474	21743.14006	4427.41837	205.64214
159903	1179.00577	21748.81426	4423.70299	197.14408
159903	1179.0083	21745.0095	4412.77197	197.09666
159903	1179.01332	21730.3721	4424.75546	192.77849
159903	1179.01837	21743.98487	4431.6165	215.42845
159903	1179.0224	21749.78734	4431.12419	218.80064
159903	1179.02793	21737.65795	4431.2781	202.44678
159903	1179.02895	21751.32207	4435.11366	191.98567
159903	1179.03098	21754.22612	4443.35704	181.57919
159903	1179.03301	21712.13805	4445.04847	216.98142
159903	1179.03403	21728.49769	4450.82047	219.70753
159903	1179.03606	21734.25394	4453.096	227.42454
159903	1179.03759	21721.64213	4454.23783	230.13593
159903	1179.03961	21732.90825	4454.71914	230.11172
159903	1179.04114	21727.12565	4459.84721	237.26372
159903	1179.04417	21722.44664	4450.82289	244.40435
159903	1179.04819	21715.83368	4444.26952	249.78595
159903	1179.05022	21750.93406	4472.70565	279.59724
159903	1179.05075	21719.56917	4463.27486	285.62603
159903	1179.05127	21717.07416	4466.82887	277.13988
159903	1179.0518	21724.01208	4457.41758	298.62933
159903	1179.05232	21713.9704	4454.65157	288.14654
159903	1179.05285	21733.72793	4454.89422	304.18858
159903	1179.05337	21726.65272	4456.0643	324.28443
159903	1179.0539	21731.12854	4461.58088	329.26349
159903	1179.05442	21706.72516	4459.27292	329.81005
159903	1179.05495	21705.61899	4454.95204	334.87388
159903	1179.05598	21698.42784	4456.91471	327.75358
159903	1179.0565	21706.89475	4450.57528	321.52335
159903	1179.05703	21693.11782	4433.68725	325.69802
159903	1179.05755	21709.3823	4440.97476	325.68993
159903	1179.05808	21707.72485	4434.81818	331.85331
159903	1179.0586	21708.34276	4438.46579	344.60184
159903	1179.06013	21698.22323	4431.91533	344.54938
159903	1179.06165	21699.6084	4435.05882	353.07119
159903	1179.06268	21695.57077	4427.22193	357.41196
159903	1179.06371	21688.71643	4458.61894	367.26879
159903	1179.06473	21690.15126	4435.60696	364.9099
159903	1179.06576	21691.37267	4447.66885	368.27826
159903	1179.06628	21704.59175	4450.18161	384.32562
159903	1179.06681	21712.12109	4438.15766	400.33485
159903	1179.06734	21710.5892	4459.57568	403.04984
159903	1179.06786	21700.16594	4463.19023	403.01984
159903	1179.06889	21703.69402	4456.90958	392.48786
159903	1179.06991	21695.722	4462.22338	383.98668
159903	1179.07094	21702.25535	4462.01085	394.5082
159903	1179.07197	21691.1806	4455.79087	417.19884
159903	1179.07299	21695.72115	4474.91692	417.17918
159903	1179.07402	21693.26324	4468.73126	417.17902
159903	1179.07504	21690.20366	4471.47607	444.82051
159903	1179.07607	21678.95444	4464.13666	448.13408
159903	1179.0771	21680.38297	4459.3125	440.37408
159903	1179.07812	21679.7875	4468.64038	479.09527
159903	1179.07915	21681.22507	4480.9232	460.32927
159903	1179.08067	21684.04914	4439.18592	463.39747
159903	1179.0812	21661.05133	4456.05325	485.64454
159903	1179.08223	21654.28882	4438.90141	481.39077
160874	1185.91806	20698.80713	2105.3121	-209.72612
160874	1185.91859	20681.79753	2074.83086	-209.73208
160874	1185.91962	20708.59629	2069.74379	-190.42263
160874	1185.92014	20677.89457	2059.69232	-178.08215
160874	1185.92067	20698.33178	2062.98732	-166.69051
160874	1185.92119	20693.35141	2059.3364	-157.48492
160874	1185.92172	20681.58006	2050.83866	-166.35011
160874	1185.92224	20677.24005	2048.50709	-166.39473
160874	1185.92527	20691.14107	2059.23671	-163.63033
160874	1185.9303	20696.42755	2070.66017	-163.64288
162525	1197.55055	20934.70805	3498.07396	41.53757
162525	1197.55107	20948.00859	3528.73184	31.66777
162525	1197.5516	20921.57644	3543.45805	42.67171
162525	1197.55212	20911.38679	3540.64271	50.31174
162525	1197.55265	20909.68422	3523.96591	57.85969
162525	1197.55317	20912.48246	3526.63287	63.99158
162525	1197.5547	20901.23873	3538.92835	70.03461
162525	1197.55722	20895.87609	3527.15638	70.01565
162525	1197.55775	20887.64525	3528.31347	74.35825
162525	1197.55828	20883.78631	3529.15574	80.49598
164640	1211.46564	18501.67292	3311.67022	-77.28451
164640	1211.46617	18503.17889	3309.80715	-83.02279
164640	1211.46719	18517.47119	3327.78567	-52.98713
164640	1211.46772	18501.00488	3310.78364	-46.92091
164640	1211.46824	18503.7355	3320.00322	-36.41969
164640	1211.46877	18491.10883	3303.3602	-12.08287
164640	1211.46979	18497.71202	3319.96898	10.58676
164640	1211.47032	18500.91186	3324.54032	-2.69897
164640	1211.47084	18524.63528	3317.78352	-8.62314
164640	1211.47137	18525.60004	3291.12183	5.81958
164640	1211.47242	18513.39542	3283.17063	7.21573
164640	1211.47295	18524.78485	3284.98641	-15.45354
164640	1211.47347	18522.74077	3297.07635	-5.01644
164640	1211.474	18542.01384	3293.08784	-24.67912
164640	1211.47452	18531.41533	3304.14834	-37.57883
164640	1211.47555	18508.55535	3295.29013	-33.498
164640	1211.47607	18518.27055	3299.87287	-36.35243
164640	1211.4771	18531.93874	3274.42321	-42.22198
164640	1211.47812	18525.25494	3284.27387	-40.17812
164640	1211.47915	18528.55545	3288.44224	-50.71393
164640	1211.48018	18515.56246	3297.70331	-55.55664
164640	1211.4812	18522.98065	3275.35766	-80.06452
164983	1213.74837	18956.55702	1828.0121	-14.19563
164983	1213.74889	18946.85657	1817.17074	-6.49315
164983	1213.74942	18954.51845	1816.63475	-11.70261
164983	1213.74994	18963.48807	1807.0646	3.20294
164983	1213.75097	18957.72412	1814.06141	16.33646
164983	1213.75199	18975.71815	1817.53493	29.80161
164983	1213.75252	18966.42171	1829.99668	15.28841
164983	1213.75304	18972.02037	1826.47661	19.62799
164983	1213.75357	18976.98284	1825.8688	22.97529
164983	1213.7541	18967.47643	1830.30053	27.31823
164983	1213.75462	18952.54553	1847.38628	30.49381
164983	1213.75515	18973.36112	1829.89431	46.57673
164983	1213.75567	18960.08565	1840.40807	36.10144
164983	1213.7562	18963.52273	1838.56155	46.57973
164983	1213.75722	18966.21276	1859.12332	49.83815
164983	1213.75825	18979.08893	1852.0548	46.85704
164983	1213.75928	18982.86192	1854.68113	61.40596
164983	1213.7598	18971.42016	1864.93992	64.13258
164983	1213.76083	18976.52522	1878.26536	72.80766
164983	1213.76235	18972.34256	1871.03593	63.83996
164983	1213.76788	18963.60417	1864.36237	69.96421
164983	1213.77191	18973.12512	1871.37144	72.70756
164983	1213.77494	18960.16201	1865.29477	62.22243
164983	1213.77746	18971.74481	1873.25459	75.89479
164983	1213.78149	18987.83378	1876.50289	88.2364
164983	1213.78552	18978.02012	1868.67467	101.99161
164983	1213.79305	18964.67396	1873.04954	108.07456
164983	1213.79607	18979.32448	1874.40662	104.65866
165627	1218.21752	19438.47574	1877.22807	35.74708
165627	1218.21805	19418.55944	1882.51497	33.72151
165627	1218.21857	19418.58897	1901.28833	13.00531
165627	1218.2191	19427.39003	1912.14598	11.43096
165627	1218.21963	19431.23769	1895.6881	23.20501
165627	1218.22015	19428.14477	1921.15222	29.12284
165627	1218.22068	19420.16913	1915.30957	29.08739
165627	1218.2212	19419.00041	1902.50747	-1.56525
165627	1218.22173	19411.30929	1900.72598	3.2105
165627	1218.22225	19410.25399	1906.64983	3.20741
165627	1218.22278	19410.96387	1907.31212	-1.19485
165627	1218.23183	19399.01977	1884.48476	12.8311
165627	1218.23286	19419.14425	1874.45561	15.44448
165627	1218.23488	19421.01078	1866.41871	23.67027
165627	1218.23591	19418.9359	1864.9516	28.01053
165627	1218.23844	19399.99277	1876.98917	-10.23307
165627	1218.23946	19421.16666	1873.42898	-22.92862
165627	1218.24099	19424.95823	1864.72016	-35.07356
165627	1218.24602	19413.19212	1843.32463	-38.31121
165627	1218.24654	19435.00169	1840.88411	-17.44669
165627	1218.24807	19435.80535	1862.0673	20.79038
165627	1218.2506	19436.77376	1865.51086	20.76616
165627	1218.25312	19421.61749	1856.17502	20.76443
165627	1218.25865	19420.50052	1871.48631	26.85702
165627	1218.26218	19447.67543	1873.66648	29.04659
165627	1218.26773	19438.2897	1866.12299	36.78636
167287	1229.09082	19862.46685	4152.02823	7.55837
167287	1229.09134	19894.74122	4150.16761	12.72095
167287	1229.09239	19890.12145	4136.0667	11.84069
167287	1229.09292	19901.59986	4132.22734	42.2308
167287	1229.09344	19902.75044	4126.45444	38.15974
167287	1229.09397	19884.42851	4120.46117	31.62591
167287	1229.09449	19894.88901	4130.76655	27.88438
167287	1229.09502	19901.10026	4118.67024	34.8017
167287	1229.09607	19900.37896	4144.1107	39.44737
167287	1229.09659	19907.65815	4145.60871	14.91289
167287	1229.09762	19909.62295	4149.51879	2.23808
167287	1229.09965	19908.03609	4146.10735	2.21307
167287	1229.10117	19913.94782	4147.40153	14.42991
173173	1269.25699	21168.40148	3819.99674	-20.71168
173173	1269.25801	21170.17413	3842.62781	-7.1465
173173	1269.25854	21163.88185	3856.67827	-7.14841
173173	1269.25907	21166.62014	3847.73013	-13.34731
173173	1269.25959	21137.49915	3855.91716	2.16637
173173	1269.26012	21142.06957	3856.36731	5.52295
173173	1269.26064	21146.48691	3842.42139	7.38342
173173	1269.26117	21138.4975	3849.52881	3.97148
173173	1269.26169	21123.09372	3820.1995	-8.23741
173173	1269.26222	21160.78136	3843.0385	-15.54937
173173	1269.26274	21148.77983	3836.25541	-22.74669
173173	1269.26327	21141.09411	3841.01591	-25.56359
173173	1269.26432	21117.15668	3816.76759	-25.58707
173173	1269.26484	21128.54662	3813.80233	-42.58477
173173	1269.26537	21139.55158	3826.43839	-58.84134
173173	1269.26589	21147.06945	3834.25935	-37.6041
173173	1269.26642	21126.11581	3868.40629	-64.05275
173173	1269.26694	21153.5585	3852.57776	-56.15249
173173	1269.26747	21152.65727	3871.21815	-71.19124
173173	1269.26799	21162.50421	3854.85769	-68.92688
173173	1269.26852	21145.34517	3832.96631	-48.22973
173173	1269.26904	21163.96085	3826.03288	-43.3002
173173	1269.26957	21160.7533	3809.13036	-30.77063
173173	1269.27009	21137.14404	3814.86512	-22.58776
173173	1269.27062	21151.32314	3820.65552	-14.38142
173173	1269.27115	21147.72016	3805.91854	-16.7552
174939	1281.15737	18474.61602	1612.8223	-8.15219
174939	1281.1579	18490.97851	1581.06649	4.51206
174939	1281.15842	18474.03853	1562.39435	4.47591
174939	1281.15895	18485.75849	1600.92815	4.47585
174939	1281.15947	18505.49085	1609.45413	-17.89861
174939	1281.16	18476.76449	1603.29816	20.3714
174939	1281.16052	18461.35333	1579.55701	-17.00622
174939	1281.16105	18495.84146	1610.33114	-19.20768
174939	1281.16257	18486.05649	1598.14755	-24.41773
174939	1281.1631	18483.11061	1600.68425	-33.88021
174939	1281.16363	18479.74403	1588.3165	-32.79414
174939	1281.16515	18463.29881	1599.85508	-41.52447
174939	1281.16568	18447.51318	1606.46579	-56.50321
174939	1281.1677	18446.0871	1610.39005	-70.10131
174939	1281.16823	18452.71184	1605.64078	-98.29911
174939	1281.16875	18419.08923	1592.19217	-91.77059
174939	1281.16928	18446.97584	1583.76657	-97.80427
174939	1281.1698	18417.09468	1604.26707	-88.90907
174939	1281.17083	18441.75404	1567.45317	-116.23352
174939	1281.17186	18423.48372	1570.89651	-93.75787
174939	1281.17238	18425.66813	1564.1971	-106.42764
174939	1281.17341	18421.68681	1572.99139	-124.23736
174939	1281.17443	18415.55706	1549.07819	-116.77869
175137	1282.6113	20983.24556	3807.40266	94.1676
175137	1282.61232	20975.03472	3831.3128	87.96765
175137	1282.61335	20942.58723	3826.53621	82.2206
175137	1282.6149	20964.8069	3832.14612	96.50785
175137	1282.61593	20967.05124	3807.01414	89.03373
175137	1282.61645	20953.70974	3825.57311	105.16039
175137	1282.61698	20967.35981	3826.3264	124.37999
175137	1282.618	20971.283	3815.42523	117.2828
175137	1282.61903	20966.6989	3810.05494	127.70592
175137	1282.61955	20964.32953	3824.10816	127.66992
175137	1282.62008	20978.72993	3821.86715	143.8082
175137	1282.62061	20963.89824	3809.80871	140.40587
175137	1282.62113	20984.70386	3814.91446	164.83059
175137	1282.62166	20981.78262	3811.13904	170.2174
175137	1282.62218	20978.65765	3810.6549	148.63419
175137	1282.62271	20962.87329	3803.617	131.17719
175137	1282.62323	20967.49308	3801.15154	131.14738
175137	1282.62376	20960.34939	3798.44738	148.80439
175137	1282.62428	20967.50106	3796.54088	155.95713
175137	1282.62531	20963.63633	3805.74924	176.01505
175137	1282.62583	20969.512	3794.66127	137.37751
175137	1282.62636	20966.69813	3788.28763	124.66774
175137	1282.62739	20964.58898	3782.5134	108.38649
175137	1282.62791	20956.23948	3797.03875	116.80744
175137	1282.62844	20968.69446	3794.80713	104.06314
175137	1282.62896	20961.68056	3804.71659	76.60496
175137	1282.62949	20969.55393	3811.97994	78.59446
175137	1282.63051	20956.04617	3805.26352	80.62429
175137	1282.63154	20950.5982	3805.26338	95.62905
176729	1293.47279	21120.19432	1641.21633	-70.25174
176729	1293.47332	21120.72416	1600.98456	-76.47771
176729	1293.47385	21105.01666	1595.70943	-72.21423
176729	1293.47437	21123.37981	1587.8812	-58.61858
176729	1293.4754	21111.08295	1608.54787	-58.62226
177151	1296.42699	20298.53404	3630.29728	-35.9519
177151	1296.42752	20272.58914	3616.83157	-34.58717
177151	1296.42804	20275.25009	3617.73575	-73.34684
177151	1296.42857	20261.59101	3611.92749	-88.29123
177151	1296.42909	20275.28874	3626.31033	-96.74701
177151	1296.42962	20264.16943	3624.07953	-96.76558
177151	1296.43115	20277.63766	3615.5951	-104.47104
177151	1296.43217	20275.56136	3620.28321	-86.10704
177151	1296.4332	20268.72756	3611.4847	-90.52116
177151	1296.43422	20271.05257	3617.62299	-77.72879
177151	1296.43475	20264.70121	3624.94978	-89.93054
177151	1296.43628	20264.76267	3629.54002	-89.98687
177151	1296.4368	20267.97771	3624.99674	-89.98657
177151	1296.43783	20279.9855	3618.35412	-93.34275
177151	1296.43885	20283.82388	3623.71036	-88.23473
177151	1296.43988	20281.14131	3622.44182	-88.27583
177151	1296.4404	20276.53186	3642.42131	-80.71945
177151	1296.44093	20275.60142	3630.0393	-70.23743
177151	1296.44246	20276.48741	3644.75844	-66.90148
177151	1296.44398	20294.07198	3644.36107	-43.77204
177151	1296.44551	20280.84969	3601.87258	-46.27476
177151	1296.44604	20274.60205	3629.71338	-37.82918
177151	1296.44706	20275.20378	3632.19199	-54.16691
177151	1296.44959	20286.12758	3636.10708	-66.88304
177151	1296.45112	20275.39349	3630.43847	-66.9071
177151	1296.45214	20272.90994	3598.57158	-51.62264
177151	1296.45267	20268.97914	3608.35665	-33.33414
177151	1296.45369	20281.03619	3591.3452	-18.45491
177151	1296.45472	20276.48576	3583.86196	-1.0777
177151	1296.45675	20276.48549	3588.68494	6.06304
177151	1296.45777	20274.48229	3586.36264	6.03371
177151	1296.4588	20277.35278	3609.59502	-5.49301
177151	1296.45982	20282.16002	3604.63495	-5.50076
177151	1296.46135	20273.28751	3607.16958	7.64945
177151	1296.46288	20282.14083	3604.27328	7.62354
177151	1296.47043	20270.09454	3588.65252	4.63198
177151	1296.47296	20264.39829	3596.32454	4.57753
177151	1296.47648	20277.89515	3590.54947	0.75857
177151	1296.48204	20244.96306	3599.47966	-9.16511
177770	1300.73751	18304.94013	2439.06667	-239.59278
177770	1300.73804	18301.7888	2447.79169	-255.57321
177770	1300.73907	18302.46314	2444.31498	-242.44444
177770	1300.74009	18321.11308	2455.32809	-246.65324
177770	1300.74112	18316.61657	2451.95982	-226.59199
177770	1300.74214	18305.50925	2442.38546	-255.10282
177770	1300.74467	18335.0825	2452.51374	-247.72196
177770	1300.7452	18320.03617	2461.65957	-236.2079
177770	1300.74572	18315.03813	2443.99821	-240.20844
177770	1300.74625	18312.88491	2446.13215	-244.61585
177770	1300.74677	18295.38893	2440.2648	-252.20152
177770	1300.7473	18289.794	2420.71903	-243.77636
177770	1300.74782	18292.42287	2417.84886	-233.45651
177770	1300.74885	18301.11019	2395.64055	-259.94002
177770	1300.74938	18322.91431	2409.98355	-259.9898
177770	1300.7499	18296.06832	2434.76078	-271.5789
178514	1305.83022	21090.53818	4143.62355	-169.62143
178514	1305.83075	21104.32106	4125.94249	-167.62596
178514	1305.83127	21087.13917	4131.58959	-169.40871
178514	1305.8318	21086.06697	4129.77301	-179.95912
178514	1305.83232	21079.94476	4135.15539	-176.19636
178514	1305.83285	21085.60714	4138.54481	-189.41746
178514	1305.83337	21088.05983	4137.60356	-191.28514
178514	1305.8339	21095.97209	4126.89011	-193.47315
178514	1305.83442	21088.89434	4131.58952	-181.25735
178514	1305.83495	21093.60959	4131.58951	-176.14898
178514	1305.83547	21091.52282	4134.29155	-163.92354
178514	1305.836	21108.51462	4153.11487	-168.84388
178514	1305.83653	21089.44155	4140.05409	-171.19244
178514	1305.83755	21094.4221	4129.29858	-167.84287
178514	1305.83808	21101.33959	4138.45393	-151.56208
178514	1305.8386	21105.54436	4124.90646	-151.57601
178514	1305.83913	21104.76645	4123.82052	-167.88632
178514	1305.83965	21104.2224	4121.18545	-169.26585
178514	1305.84068	21105.44768	4110.16932	-169.27655
178514	1305.8412	21087.51844	4122.39348	-167.27895
178514	1305.84525	21093.17395	4135.73443	-161.2627
178514	1305.84628	21090.71686	4134.01741	-149.40039
178514	1305.84831	21079.02923	4123.84507	-187.81881
178514	1305.84983	21085.3629	4134.19637	-175.09264
178514	1305.85286	21076.30034	4123.65714	-164.7202
178514	1305.85689	21066.03774	4127.04799	-169.82735
178514	1305.85941	21091.6276	4130.4275	-169.82903
178514	1305.86496	21078.49051	4128.46687	-172.62325
178514	1305.86549	21070.96187	4119.13848	-180.32255
178514	1305.86601	21084.47012	4112.97201	-183.08257
178514	1305.86704	21079.92793	4115.15438	-210.77764
178514	1305.86857	21070.84248	4119.57468	-210.78517
178514	1305.87009	21075.21695	4117.96564	-227.13859
183180	1337.88025	20216.6005	3809.27629	68.9261
183180	1337.88078	20229.25658	3827.66466	65.51553
183180	1337.8813	20234.94621	3840.94967	61.72711
183180	1337.88183	20235.02581	3830.64435	61.69934
183180	1337.88235	20217.87317	3814.73036	37.53504
186103	1357.58285	21281.744	2575.45887	116.51755
186103	1357.58337	21320.97484	2572.30697	123.60183
186103	1357.5844	21302.97551	2554.36984	122.27825
186103	1357.58493	21293.77691	2540.52868	110.83113
186103	1357.58545	21294.43063	2515.38602	75.76408
186103	1357.58598	21300.36435	2542.62516	91.97775
186103	1357.5875	21293.65099	2496.68115	91.9282
190841	1389.92137	21614.78853	2755.69803	-7.32934
190841	1389.92189	21613.12716	2762.76274	-19.51296
190841	1389.92242	21615.71346	2770.16502	-7.07714
190841	1389.92294	21608.11827	2758.49449	-7.08597
190841	1389.92397	21617.81055	2748.77997	-19.61999
190841	1389.925	21611.96803	2742.73033	-17.32844
190841	1389.92602	21601.25187	2754.85456	-11.78566
190841	1389.92705	21606.92055	2747.77262	-16.1909
190841	1389.92808	21602.75351	2749.6893	-13.87977
190841	1389.9316	21594.33948	2749.68914	2.30229
190841	1389.93313	21577.28779	2749.68907	-4.66596
190841	1389.93466	21588.07653	2763.23949	-15.09819
190841	1389.94421	21565.17426	2751.12612	-25.25408
192744	1402.243	21444.06136	2729.3222	126.1801
192744	1402.24352	21460.32123	2704.36516	132.76207
192744	1402.24405	21458.35535	2690.73667	135.69992
192744	1402.24457	21466.15768	2715.56043	158.66082
192744	1402.2451	21418.22194	2705.76516	161.61299
192744	1402.24562	21427.29693	2701.09905	155.63421
192744	1402.24615	21442.46827	2706.23907	155.59484
192744	1402.24668	21413.62783	2684.54323	165.4102
193760	1409.08641	18563.47108	2935.04006	115.03209
193760	1409.08693	18582.11336	2927.17136	114.08377
193760	1409.08746	18562.61216	2934.62903	96.86987
193760	1409.08799	18579.91136	2932.18779	88.3703
193760	1409.08851	18581.49016	2946.08915	95.95896
193760	1409.08904	18576.51762	2919.0986	76.19805
193760	1409.08956	18584.90483	2919.58839	77.75172
193760	1409.09009	18576.85789	2913.02091	83.88521
193760	1409.09061	18576.14718	2916.87901	78.69196
193760	1409.09114	18590.32623	2906.19744	72.59279
193760	1409.09166	18589.3065	2901.8561	58.89945
193760	1409.09219	18594.86995	2912.84035	58.87847
193760	1409.09271	18591.83282	2917.75668	35.04683
193760	1409.09324	18593.84821	2895.77216	51.02702
193760	1409.09376	18590.61679	2897.43393	30.91736
193760	1409.09429	18588.26842	2879.71491	24.87074
193760	1409.09481	18619.16137	2881.03763	11.00767
193760	1409.09534	18598.24747	2898.65429	0.60449
193760	1409.09587	18622.24664	2910.7243	-18.62647
193760	1409.09639	18627.17355	2906.45379	19.74353
193760	1409.09692	18610.85581	2912.11534	-4.02005
193760	1409.09744	18616.58669	2904.24212	-10.24927
193760	1409.09797	18602.72655	2894.39615	-12.58165
193760	1409.09849	18605.30635	2873.82838	-31.91042
193760	1409.09902	18611.80558	2899.17049	-37.02406
193760	1409.10004	18626.76025	2903.37707	-21.18708
193760	1409.10057	18614.17942	2882.50903	-29.98273
193760	1409.10159	18620.68279	2888.30327	-29.99256
193760	1409.10212	18614.2908	2877.67536	-53.70479
193760	1409.10314	18653.50838	2885.29664	-33.74286
193760	1409.10367	18641.73941	2881.48591	-50.09184
193760	1409.1042	18640.84873	2913.71902	-34.76548
193760	1409.10472	18632.54981	2906.57529	-34.81562
193760	1409.10525	18625.13434	2910.71712	-45.20409
193760	1409.10577	18634.99833	2896.43699	-45.25306
193760	1409.1063	18625.04162	2894.07602	-45.25327
193760	1409.10682	18628.58998	2872.35491	-64.67362
193760	1409.10785	18620.63132	2868.86876	-62.0006
193760	1409.10887	18645.59998	2882.55509	-68.01328
193760	1409.1099	18650.1564	2890.94894	-57.77615
193760	1409.11093	18647.50449	2886.78569	-64.0254
193760	1409.11195	18631.32539	2880.49429	-74.41315
193760	1409.11298	18636.37225	2876.52651	-94.51772
193760	1409.11401	18658.24165	2900.99586	-75.46394
193760	1409.11503	18662.65735	2914.53577	-76.98259
193760	1409.11606	18624.42802	2913.03426	-72.92367
193760	1409.11658	18614.30672	2907.49242	-88.63769
193760	1409.11711	18649.81022	2909.79601	-96.14535
193760	1409.11763	18652.82964	2904.39349	-85.8293
193760	1409.11816	18635.48271	2899.02516	-65.85884
193760	1409.11868	18640.18559	2898.15437	-27.16466
193760	1409.11921	18641.85856	2903.74181	-10.83494
193760	1409.11973	18634.25311	2918.46049	-26.90968
193760	1409.12026	18628.41943	2927.77915	-46.62613
193760	1409.12079	18637.60755	2908.77875	-52.809
193760	1409.12131	18619.29917	2877.68671	-69.66255
193760	1409.12184	18620.21607	2899.9447	-74.06348
193760	1409.12286	18632.73722	2909.06085	-69.00394
193760	1409.12339	18614.24613	2905.50401	-88.99657
193760	1409.12441	18632.82335	2907.47036	-81.31651
193760	1409.12544	18641.43903	2920.16854	-43.21303
193760	1409.12697	18616.50776	2898.58785	-81.27341
193760	1409.12749	18636.55318	2912.45955	-87.44615
193760	1409.12802	18627.94219	2911.36951	-87.49843
193760	1409.12854	18626.56232	2910.0469	-73.69861
193760	1409.12957	18630.51942	2896.45886	-80.77686
193760	1409.13059	18643.37413	2897.82594	-74.70802
193760	1409.13162	18635.83568	2905.90334	-94.88145
193760	1409.13265	18640.18113	2905.12372	-91.47111
193760	1409.13367	18667.12314	2890.40553	-54.26386
193760	1409.1342	18649.75383	2899.381	-68.09382
193760	1409.13472	18631.64917	2893.89531	-94.04115
193760	1409.13525	18649.65232	2908.09737	-77.99357
193760	1409.13577	18647.90465	2909.75753	-102.8184
193760	1409.1363	18644.88774	2921.53581	-64.44153
193760	1409.13733	18642.19586	2892.0202	-26.45667
193760	1409.13785	18654.74199	2909.12381	-64.93187
193760	1409.13838	18655.42985	2900.55075	-75.45479
193760	1409.1394	18656.35017	2892.43465	-55.49148
193760	1409.13993	18645.1268	2892.26249	-45.07489
193760	1409.14045	18662.55925	2902.32953	-45.08404
193760	1409.14098	18650.26594	2931.41487	-66.60538
193760	1409.1415	18629.22383	2923.73875	-104.49477
193760	1409.14203	18646.43582	2916.36401	-112.30366
193760	1409.14255	18660.52669	2905.5079	-112.34563
193760	1409.14308	18657.8067	2901.82251	-101.92807
193760	1409.14411	18643.53288	2906.64134	-63.41847
193760	1409.14463	18643.27141	2910.38048	-63.45731
193760	1409.14516	18652.75949	2906.08493	-102.09654
193760	1409.14568	18638.89239	2907.20899	-140.70584
193760	1409.14621	18638.63241	2917.5597	-179.27893
193760	1409.14673	18675.33148	2909.66927	-153.19606
193760	1409.14726	18657.94045	2918.23464	-147.05884
193760	1409.14778	18651.3181	2910.99321	-136.57311
193760	1409.14831	18638.32413	2911.00226	-142.65785
193760	1409.14883	18645.98123	2905.56244	-103.9591
193760	1409.14936	18651.68178	2905.77714	-103.98657
193760	1409.14988	18648.51791	2904.9262	-103.98678
193760	1409.1504	18653.19748	2915.14922	-103.98699
193760	1409.15093	18638.87107	2907.96706	-114.40498
193760	1409.15145	18655.65757	2911.94672	-114.42442
193760	1409.15248	18642.38167	2908.43396	-120.60574
193760	1409.153	18652.79635	2916.01128	-120.65064
193760	1409.15353	18651.47083	2890.32509	-158.68747
193760	1409.15406	18642.78552	2886.16102	-197.03122
193760	1409.15458	18655.77345	2879.43989	-169.82544
193760	1409.15511	18660.02974	2866.2938	-154.00382
193760	1409.15563	18667.83047	2883.37472	-154.03793
193760	1409.15616	18652.60017	2874.07657	-166.18796
193760	1409.15718	18643.13955	2898.78216	-185.61473
193760	1409.15771	18651.67872	2875.64256	-185.65497
193760	1409.15823	18669.68235	2860.8082	-170.11774
193760	1409.15876	18655.48651	2849.29015	-164.17818
193760	1409.15928	18647.12834	2863.2952	-171.96007
193760	1409.15981	18639.06812	2876.96411	-164.42787
193760	1409.16084	18616.42771	2879.98772	-177.42915
193760	1409.16136	18624.40684	2871.39501	-147.28966
193760	1409.16189	18633.3031	2861.25595	-122.6714
193760	1409.16241	18647.05871	2868.98992	-140.2017
193760	1409.16294	18666.13071	2871.72502	-130.28664
193760	1409.16346	18649.84647	2871.75623	-148.70694
193760	1409.16399	18644.94482	2867.72352	-144.34007
193760	1409.16451	18653.57693	2868.89443	-129.7272
193760	1409.16504	18659.97085	2876.12583	-123.6198
193760	1409.16556	18652.21551	2900.54694	-145.511
193760	1409.16609	18665.89546	2876.36217	-125.7249
193760	1409.16712	18652.664	2887.8227	-136.2574
193760	1409.16814	18686.52247	2893.26703	-123.40206
193760	1409.16917	18664.87228	2892.1443	-139.71798
193760	1409.17019	18653.53399	2873.62611	-117.49448
193760	1409.17122	18654.06476	2899.61314	-127.79122
193760	1409.17225	18642.96931	2880.96828	-108.01712
193760	1409.17327	18655.52916	2887.03082	-105.98121
193760	1409.1743	18649.57465	2903.7705	-106.01077
193760	1409.17482	18658.116	2907.09681	-122.1535
193760	1409.17535	18674.23319	2896.08525	-104.25324
193760	1409.17638	18665.65488	2918.3592	-117.69613
193760	1409.1774	18646.25509	2917.34496	-133.61569
193760	1409.17793	18679.18271	2897.73794	-96.0525
193760	1409.17845	18668.89463	2906.836	-134.78859
193760	1409.17898	18660.32857	2896.28491	-151.00669
193760	1409.18	18657.70388	2872.81677	-188.57978
193760	1409.18053	18682.54276	2881.2581	-172.79477
193760	1409.18105	18689.52924	2869.79328	-172.84697
193760	1409.18158	18687.31804	2887.20957	-177.94002
193760	1409.1826	18674.22501	2900.83492	-182.93859
193760	1409.18313	18676.00448	2875.7785	-199.07923
193760	1409.18365	18681.97407	2893.03027	-160.54132
193760	1409.18418	18673.3818	2903.03381	-168.2221
193760	1409.18471	18659.07855	2895.57317	-172.5761
193760	1409.18523	18656.89194	2888.09626	-162.2149
193760	1409.18576	18674.04233	2884.32949	-123.76548
193760	1409.18628	18642.61166	2883.34465	-123.7768
193760	1409.18681	18663.76104	2896.98653	-85.31106
193760	1409.18733	18663.35634	2908.89737	-75.05085
193760	1409.18786	18632.61088	2921.26836	-75.07138
193760	1409.18838	18636.70733	2920.32669	-99.66505
193760	1409.18891	18649.22656	2912.62336	-119.75857
193760	1409.18943	18651.18819	2898.8975	-112.16884
193760	1409.18996	18652.37808	2868.04577	-75.43293
193760	1409.19048	18651.53492	2904.34444	-83.05911
193760	1409.19151	18659.69092	2911.7775	-93.34132
193760	1409.19253	18660.69624	2888.43072	-79.84136
193760	1409.19356	18657.57391	2914.12478	-118.09574
193760	1409.19459	18664.66838	2895.47796	-101.9184
193760	1409.19511	18666.01404	2900.11433	-124.76836
193760	1409.19614	18649.36941	2879.11109	-105.39955
193760	1409.19716	18648.95969	2889.61326	-111.59047
193760	1409.19819	18643.4976	2882.41139	-103.90776
193760	1409.19922	18642.54024	2906.91892	-141.98351
193760	1409.19974	18602.30205	2896.14101	-116.85998
193760	1409.20027	18655.74884	2878.55489	-107.29945
193760	1409.20079	18651.0881	2868.72363	-117.46061
193760	1409.20132	18655.38913	2883.04565	-109.76839
193760	1409.20234	18662.24411	2870.01217	-109.80617
193760	1409.20287	18671.65677	2890.7507	-119.93571
193760	1409.2034	18683.74139	2901.31904	-98.01481
193760	1409.20442	18651.01384	2914.38707	-117.03546
193760	1409.20495	18635.00045	2910.64418	-117.07039
193760	1409.20547	18654.37304	2910.37595	-78.43292
193760	1409.2065	18661.0354	2919.75835	-116.81718
193760	1409.20752	18678.28804	2907.87669	-110.88519
193760	1409.20805	18661.25542	2886.02824	-126.57734
193760	1409.20858	18652.16859	2898.41164	-137.0111
193760	1409.2091	18649.52557	2884.39561	-98.65046
193760	1409.20963	18664.07367	2880.82877	-76.14783
193760	1409.21015	18653.73047	2897.423	-68.47257
193760	1409.21068	18647.98446	2914.85332	-94.11924
193760	1409.2117	18649.40195	2924.29539	-100.09949
193760	1409.21223	18676.05684	2916.67104	-62.32514
193760	1409.21275	18655.65198	2938.78077	-62.386
193760	1409.21328	18649.62897	2930.54962	-62.38621
193760	1409.2138	18656.63693	2912.20718	-36.36948
193760	1409.21433	18651.54049	2908.69646	-52.5711
193760	1409.21485	18660.75787	2929.37584	-90.91275
193760	1409.21538	18658.7429	2906.51728	-62.58804
193760	1409.21641	18646.98506	2919.31423	-62.63159
193760	1409.21693	18658.72599	2926.45963	-24.07999
193760	1409.21745	18645.04671	2925.54093	-62.67198
193760	1409.21798	18649.96142	2929.19126	-73.19689
193760	1409.21851	18646.69852	2911.54536	-62.89246
193760	1409.21903	18648.14934	2913.79913	-42.79588
193760	1409.22006	18640.46975	2931.6524	-81.08949
193760	1409.22058	18640.03732	2921.89293	-42.40202
193760	1409.22111	18651.92321	2927.07812	-65.15405
193760	1409.22163	18640.29994	2931.20606	-65.19715
193760	1409.22216	18637.68767	2934.82845	-75.67148
193760	1409.22268	18640.5387	2922.65652	-86.16973
193760	1409.22321	18650.53515	2921.79427	-81.82685
193760	1409.22373	18645.24975	2905.67337	-81.86058
193760	1409.22426	18665.27626	2905.97265	-43.82416
193760	1409.22478	18653.58808	2920.45063	-48.2031
193760	1409.22531	18621.36171	2931.63078	-85.06669
193760	1409.22583	18635.34371	2886.66296	-48.17454
193760	1409.22636	18641.97339	2900.11911	-54.41215
193760	1409.22688	18651.25719	2933.71106	-35.60308
193760	1409.22741	18639.86127	2933.07096	-35.65842
193760	1409.22794	18632.76156	2911.95116	-74.03871
193760	1409.22846	18633.4476	2891.76222	-74.04995
193760	1409.22899	18628.19412	2915.30241	-112.59929
193760	1409.22951	18651.84282	2914.12148	-74.50075
193760	1409.23004	18649.16923	2927.12299	-112.83442
193760	1409.23056	18646.98253	2912.47791	-132.95875
193760	1409.23109	18669.02046	2891.2371	-133.01095
193760	1409.23161	18654.86295	2889.16173	-171.47711
193760	1409.23214	18660.57227	2896.14146	-132.80101
193760	1409.23266	18660.36923	2905.88977	-112.78985
193760	1409.23319	18628.56625	2906.50323	-150.15752
193760	1409.23371	18661.48587	2909.53652	-122.9881
193760	1409.23424	18664.25331	2898.28081	-84.53649
193760	1409.23476	18642.25969	2891.65295	-122.75751
193760	1409.23529	18657.98284	2899.38301	-84.11969
193760	1409.23632	18655.9492	2899.84746	-122.8474
193760	1409.23684	18652.59404	2896.619	-122.88139
193760	1409.23737	18665.06803	2884.16172	-122.8816
193760	1409.23789	18659.01955	2900.14857	-133.35459
193760	1409.23892	18664.92398	2889.38559	-127.21546
193760	1409.23944	18674.57554	2901.66157	-165.59466
193760	1409.23997	18672.99501	2896.7092	-165.60724
193760	1409.24049	18673.88138	2896.70921	-161.20421
193760	1409.24102	18660.65227	2891.00191	-156.85818
193760	1409.24154	18649.0379	2896.45837	-167.18223
193760	1409.24207	18635.99346	2906.77515	-167.19498
193760	1409.24259	18649.92026	2892.62478	-156.71972
193760	1409.24312	18650.60507	2911.17266	-136.87405
193760	1409.24364	18661.39624	2891.36022	-98.62795
193760	1409.24417	18635.87546	2913.69713	-60.78844
193760	1409.24469	18622.92715	2929.57431	-97.98838
193760	1409.24522	18637.09931	2920.2296	-81.68621
193760	1409.24575	18637.58288	2916.44314	-120.46807
193760	1409.24627	18654.9546	2911.65329	-100.82568
193760	1409.2468	18647.85718	2932.56938	-62.64194
193760	1409.24732	18646.33484	2909.13427	-73.00392
193760	1409.24785	18641.82154	2916.00863	-34.29514
193760	1409.24837	18640.73771	2903.76758	-54.25926
193760	1409.2489	18641.98595	2915.36472	-54.28264
193760	1409.24942	18634.84037	2936.13842	-92.14774
193760	1409.24995	18653.63772	2937.5341	-92.18589
193760	1409.25047	18659.51058	2907.91824	-72.86793
193760	1409.251	18641.19468	2907.83005	-72.89919
193760	1409.25152	18640.50657	2915.00127	-72.8994
193760	1409.25205	18633.2469	2936.94647	-110.76316
193760	1409.25257	18658.23377	2913.23411	-110.80264
193760	1409.2531	18658.93556	2893.11237	-73.19555
193760	1409.25363	18641.10219	2897.99727	-34.73945
193760	1409.25415	18648.7146	2925.00414	-63.54758
193760	1409.25468	18657.19399	2931.99102	-101.68341
193760	1409.2552	18661.54806	2898.99482	-86.03917
193760	1409.25573	18627.40399	2908.79972	-123.60474
193760	1409.25625	18651.42084	2901.64323	-85.06832
193760	1409.25678	18653.37757	2905.50766	-78.92626
193760	1409.2573	18644.24912	2908.18154	-117.66904
193760	1409.25783	18641.88387	2906.64293	-78.97814
193760	1409.25835	18657.337	2908.83919	-95.14813
193760	1409.25888	18656.73736	2915.56699	-95.18013
193760	1409.2594	18651.0071	2914.04372	-56.45545
193760	1409.25993	18631.9794	2934.77084	-93.91848
193760	1409.26045	18659.78034	2935.53449	-80.60275
193760	1409.26098	18662.80135	2922.07775	-119.12053
193760	1409.2615	18651.61592	2911.06421	-105.58931
193760	1409.26203	18637.73425	2897.43842	-67.83934
193760	1409.26255	18643.97325	2907.77825	-47.75693
193760	1409.26308	18649.49489	2922.6999	-70.30896
193760	1409.2636	18662.92955	2923.2743	-108.63489
193760	1409.26413	18649.30059	2908.39507	-102.54104
193760	1409.26466	18636.3834	2902.96774	-86.59686
193760	1409.26518	18641.89405	2917.85809	-106.67631
193760	1409.26571	18642.70925	2917.99051	-117.2221
193760	1409.26623	18637.58953	2907.47795	-101.00642
193760	1409.26676	18654.36938	2907.02502	-139.42402
193760	1409.26728	18630.13183	2896.82412	-129.24556
193760	1409.26781	18651.55526	2899.37061	-90.835
193760	1409.26833	18644.88339	2902.89876	-80.31853
193760	1409.26886	18648.61979	2901.81826	-90.88432
193760	1409.26938	18642.90114	2901.81827	-129.63668
193760	1409.26991	18649.32793	2900.61617	-129.66932
193760	1409.27094	18651.61491	2904.24714	-129.66972
193760	1409.27146	18638.57513	2907.53243	-119.25215
193760	1409.27198	18647.4396	2904.94026	-80.56928
193760	1409.27251	18645.24542	2914.52891	-96.8694
193760	1409.27303	18650.02963	2914.26555	-96.89467
193760	1409.27356	18644.62374	2925.7343	-58.42893
193760	1409.27409	18637.92028	2926.61313	-96.99609
193760	1409.27461	18648.57629	2922.53673	-97.01736
193760	1409.27514	18654.454	2903.39432	-58.9796
193760	1409.27566	18641.24089	2910.79816	-69.46699
193760	1409.27619	18647.87872	2935.45446	-107.44322
193760	1409.27671	18656.30861	2920.89411	-68.90338
193760	1409.27724	18640.38541	2914.86386	-79.33048
193760	1409.27776	18648.40465	2932.26207	-40.91348
193760	1409.27829	18655.63647	2942.97507	-54.32101
193760	1409.27881	18640.51004	2940.20842	-54.35543
193760	1409.27934	18648.74529	2927.59705	-43.90968
193760	1409.27986	18645.72451	2928.19108	-27.56164
193760	1409.28039	18657.20047	2926.29356	10.93051
193760	1409.28091	18649.72032	2914.45392	4.77785
193760	1409.28144	18642.94859	2918.1702	-33.9121
193760	1409.28197	18641.72594	2931.69619	-44.35918
193760	1409.28249	18658.31678	2925.37498	-34.04805
193760	1409.28302	18652.63937	2917.38825	-34.0934
193760	1409.28354	18657.46683	2908.29447	-72.5609
193760	1409.28407	18652.27575	2902.42283	-72.607
193760	1409.28459	18648.6099	2905.27386	-111.3294
193760	1409.28512	18634.45051	2898.52914	-149.65895
193760	1409.28564	18639.67255	2907.73254	-110.97147
193760	1409.28617	18650.6934	2897.10265	-149.55208
193760	1409.28669	18651.02273	2902.77292	-149.57335
193760	1409.28722	18627.44189	2898.05525	-187.69739
193760	1409.28774	18629.86033	2899.83184	-164.93847
193760	1409.28827	18649.12039	2885.90571	-149.0699
193760	1409.28879	18641.25762	2922.57577	-186.60733
193760	1409.28932	18644.48554	2881.67243	-164.64275
193760	1409.28984	18641.00994	2897.83375	-175.18208
193760	1409.29037	18644.72709	2900.52067	-155.06762
193760	1409.29089	18640.88657	2898.12901	-193.79304
193760	1409.29142	18667.1108	2880.60327	-188.05533
193760	1409.29194	18662.80955	2874.44539	-177.78485
193760	1409.29247	18655.9595	2880.50197	-184.03189
193760	1409.293	18668.39174	2889.06746	-191.74555
193760	1409.29352	18646.512	2900.554	-229.78928
193760	1409.29405	18633.94012	2896.52598	-191.71496
193760	1409.29457	18637.75116	2888.39678	-202.22585
193760	1409.2951	18624.33608	2891.31755	-163.86855
193760	1409.29562	18632.1971	2891.31756	-143.77817
193760	1409.29615	18650.84978	2893.01339	-133.53266
193760	1409.29667	18675.90995	2895.96242	-170.67815
193760	1409.2972	18677.15419	2923.51527	-207.70321
193760	1409.29772	18663.25619	2924.22401	-212.06019
193760	1409.29825	18653.61408	2901.84246	-229.45737
193760	1409.29877	18666.80785	2923.7753	-267.85451
193760	1409.2993	18675.18919	2930.00468	-273.90846
193760	1409.29982	18661.66127	2940.94844	-282.25539
193760	1409.30035	18671.95804	2937.32986	-274.09186
193760	1409.30088	18678.62999	2952.80679	-236.03183
193760	1409.3014	18682.93071	2945.89389	-260.78146
193760	1409.30193	18698.74099	2947.88779	-260.78535
193760	1409.30245	18710.80254	2948.07525	-259.23597
193760	1409.30298	18697.94777	2931.44254	-255.3195
193760	1409.3035	18686.09409	2912.38303	-278.175
193760	1409.30403	18704.75201	2901.96186	-308.03385
193760	1409.30455	18712.03967	2924.15405	-286.8935
193760	1409.30508	18702.52906	2916.33875	-294.70182
193760	1409.3056	18677.45999	2902.18626	-312.12867
193760	1409.30613	18673.71774	2886.44533	-304.14891
193760	1409.30665	18681.84441	2907.58971	-282.71572
193760	1409.30718	18698.94213	2921.78048	-269.02441
193760	1409.3077	18695.75526	2909.24821	-263.30528
193760	1409.30823	18680.027	2924.45868	-256.63641
193760	1409.30876	18677.50323	2943.49785	-238.00904
193760	1409.30928	18671.57399	2963.58003	-220.90018
193760	1409.30981	18699.64393	2965.67233	-228.23094
193760	1409.31033	18704.307	2934.83348	-241.39414
193760	1409.31086	18689.8677	2905.526	-204.86375
193760	1409.31138	18686.82478	2907.70208	-208.20941
193760	1409.31191	18658.75638	2887.78906	-244.6445
193760	1409.31243	18701.24317	2917.78567	-226.48764
193760	1409.31296	18717.86634	2906.36734	-189.11468
193760	1409.31348	18704.44442	2910.00684	-184.73133
193760	1409.31451	18705.22413	2916.91309	-199.37228
193760	1409.31554	18699.82965	2903.61834	-200.99252
193760	1409.31606	18669.71841	2897.00915	-210.73743
193760	1409.31659	18673.89458	2885.02721	-233.00795
193760	1409.31711	18669.9785	2889.9539	-233.02025
193760	1409.31764	18680.79789	2897.80407	-224.11738
193760	1409.31866	18674.74425	2872.43976	-203.19433
193760	1409.31919	18691.0471	2864.08248	-181.14055
193760	1409.31971	18704.78312	2880.33304	-172.53212
193760	1409.32074	18681.42434	2898.50544	-182.57928
193760	1409.32127	18677.72262	2883.80605	-189.7376
193760	1409.32179	18676.59074	2883.7701	-179.2445
193760	1409.32232	18665.39889	2890.06884	-174.18563
193760	1409.32334	18663.51338	2885.63595	-181.99508
193760	1409.32437	18679.50771	2882.67012	-175.86775
193760	1409.32539	18681.87809	2875.85356	-137.3414
193760	1409.32592	18653.08027	2879.96547	-153.09477
193760	1409.32645	18672.59837	2867.58892	-136.98632
193760	1409.32697	18655.08353	2895.66265	-156.38223
193760	1409.328	18678.29207	2894.33532	-142.99694
193760	1409.32902	18674.49187	2889.33136	-181.72289
193760	1409.33005	18672.05765	2849.92629	-145.09293
193760	1409.33057	18648.01689	2874.61631	-183.00107
193760	1409.3311	18659.73608	2875.81425	-144.32372
193760	1409.33162	18657.49014	2878.21076	-154.84543
193760	1409.33215	18649.35918	2869.75688	-132.1765
193760	1409.33268	18653.57521	2872.58642	-121.66572
193760	1409.3332	18669.12468	2882.30387	-127.74106
193760	1409.33423	18665.39141	2885.82331	-124.40659
193760	1409.33525	18668.62409	2909.51603	-139.94426
193760	1409.33578	18664.45131	2899.61831	-132.15666
193760	1409.3368	18676.89858	2897.27826	-170.75094
193760	1409.33733	18687.13231	2880.75338	-170.77221
193760	1409.33786	18668.63055	2878.81432	-164.65859
193760	1409.33838	18658.65328	2875.40285	-170.7306
193760	1409.33891	18680.72788	2884.7914	-170.77282
193760	1409.33993	18705.40889	2892.70824	-207.86533
193760	1409.34046	18678.45826	2871.11438	-229.02155
193760	1409.34148	18700.80878	2873.68395	-221.46338
193760	1409.34253	18700.59357	2870.25417	-221.49443
193760	1409.34306	18737.03264	2877.43194	-209.13283
193760	1409.34358	18740.73347	2875.14091	-199.09141
193760	1409.34411	18708.05906	2868.93452	-207.33544
193760	1409.34514	18703.83653	2881.51506	-227.17734
193760	1409.34566	18727.64869	2867.21688	-223.91374
193760	1409.34619	18712.95061	2882.09796	-237.58567
193760	1409.34721	18702.43609	2863.37385	-241.88932
193760	1409.34824	18698.63757	2868.73364	-233.78896
193760	1409.34927	18720.22067	2871.95272	-233.82612
193760	1409.35029	18734.56337	2885.65373	-204.6393
193760	1409.35082	18715.87384	2874.52042	-220.96617
193760	1409.35134	18697.89033	2854.71552	-229.84285
193760	1409.35187	18687.70397	2865.20756	-241.74536
193760	1409.35239	18692.76006	2850.1303	-241.76189
193760	1409.35292	18679.71557	2858.95601	-250.14328
193760	1409.35394	18683.2647	2860.118	-247.82139
193760	1409.35447	18701.37174	2858.96371	-231.80955
193760	1409.35499	18703.98056	2856.23752	-219.66434
193760	1409.35602	18696.9768	2843.74463	-216.30106
193760	1409.35705	18670.77684	2849.18016	-230.73323
193760	1409.35807	18656.54835	2835.21159	-240.62265
193760	1409.3586	18682.54861	2826.83696	-228.74658
193760	1409.35912	18690.61023	2834.272	-197.71325
193760	1409.36015	18667.5734	2854.47835	-205.88211
193760	1409.36118	18665.67282	2839.38368	-219.62631
193760	1409.3617	18680.46209	2849.82576	-215.32788
193760	1409.36273	18671.40413	2857.35986	-215.33764
193760	1409.36375	18659.27878	2855.26138	-235.22237
193760	1409.36478	18695.63785	2848.75483	-226.848
193760	1409.36531	18718.42912	2856.52779	-221.29442
193760	1409.36583	18701.42108	2849.1977	-226.77401
193760	1409.36686	18711.76812	2851.30093	-226.81383
193760	1409.36788	18714.27251	2859.81629	-200.60409
193760	1409.36891	18709.74344	2848.30396	-192.13263
193760	1409.36994	18672.93431	2864.13784	-212.03003
193760	1409.37046	18686.82163	2837.85045	-173.93026
193760	1409.37099	18694.2518	2856.82441	-180.10498
193760	1409.37251	18689.23236	2870.41611	-141.91708
193760	1409.37354	18665.5976	2866.69495	-137.78223
193760	1409.37406	18669.01075	2876.16674	-146.63246
193760	1409.37509	18664.54906	2889.07918	-166.30188
193760	1409.37612	18665.27292	2872.35906	-147.96994
193760	1409.37664	18676.19299	2870.18018	-141.87382
193760	1409.37767	18679.95268	2891.55584	-141.91806
193760	1409.37869	18659.50513	2887.88165	-131.61471
193760	1409.37972	18660.55883	2888.18277	-131.66493
193760	1409.38024	18653.92286	2884.25142	-127.28605
193760	1409.38127	18661.18821	2896.52177	-127.33203
193760	1409.3823	18639.35352	2900.94095	-146.85317
193760	1409.38332	18654.78172	2881.67678	-133.2854
193760	1409.38385	18642.60342	2882.37768	-113.3295
193760	1409.38487	18637.73387	2913.30101	-150.87913
193760	1409.3854	18674.29129	2886.48397	-122.20638
193760	1409.38592	18663.48721	2877.12139	-83.82542
193760	1409.38645	18668.20945	2848.60471	-110.14345
193760	1409.38698	18653.22493	2868.49607	-123.83444
193760	1409.3875	18660.24584	2885.09426	-141.92987
193760	1409.38853	18648.99513	2882.20419	-144.32035
193760	1409.38955	18662.53246	2884.27493	-149.47159
193760	1409.39058	18690.11	2874.51576	-186.66663
193760	1409.3911	18675.19784	2869.97694	-191.11414
193760	1409.39213	18665.92454	2855.0417	-191.1179
193760	1409.39266	18675.15709	2890.75338	-210.43224
193760	1409.39318	18670.00358	2865.36164	-187.80359
193760	1409.39371	18668.40905	2877.55715	-194.0035
193760	1409.39526	18678.22367	2842.94168	-175.09419
193760	1409.39578	18677.1106	2856.77334	-162.6348
193760	1409.39681	18654.62537	2871.33728	-180.4177
197560	1435.33828	21268.9287	3263.93387	-77.9928
197560	1435.3388	21281.71513	3274.90986	-92.68509
197560	1435.33933	21273.76679	3264.00707	-104.33907
197560	1435.33985	21278.21043	3263.65274	-113.91867
197560	1435.34038	21270.53397	3266.91179	-110.09969
197560	1435.3409	21266.91006	3264.17761	-113.84482
197560	1435.34143	21273.61539	3261.25196	-108.42749
197560	1435.34195	21267.85525	3265.55479	-115.96633
197560	1435.34248	21263.86435	3245.24937	-83.10466
197560	1435.34301	21246.95725	3265.40403	-87.34988
198001	1438.41417	19593.4281	1000.70131	-249.35837
198001	1438.41469	19578.27173	998.6862	-237.61167
198001	1438.41522	19586.27686	995.15743	-234.01455
198001	1438.41574	19574.21101	985.20839	-241.61749
198001	1438.41627	19581.28203	982.02868	-241.64793
198001	1438.41679	19577.80834	983.12011	-247.45992
198001	1438.41732	19581.32451	978.94342	-250.29128
198001	1438.41784	19581.32116	981.3605	-252.23627
198001	1438.41837	19585.10225	973.3349	-259.56402
198001	1438.41942	19573.61236	967.19145	-250.05755
198001	1438.41994	19548.34745	982.71313	-283.35163
198001	1438.42047	19549.73912	982.39223	-278.33167
198001	1438.4245	19542.06379	971.25016	-272.31286
199855	1450.98304	19799.80563	4188.24616	25.0797
199855	1450.98356	19792.38812	4204.20596	25.04807
199855	1450.98409	19810.29717	4188.59893	23.08533
199855	1450.98461	19791.60903	4180.55842	27.77805
199855	1450.98514	19808.76491	4186.64652	23.04614
199855	1450.98566	19808.54207	4191.19924	24.36238
199855	1450.98619	19828.38463	4184.56601	37.59812
199855	1450.98671	19818.14867	4174.53081	45.26565
199855	1450.98724	19807.98737	4175.67535	65.28976
199855	1450.98776	19807.82426	4153.66608	72.71948
199855	1450.98829	19812.20352	4142.64011	82.84909
199855	1450.98932	19827.941	4127.3694	78.76511
199855	1450.99034	19828.72389	4097.66238	81.73554
199855	1450.99237	19826.59371	4110.93768	99.39391
199855	1450.9934	19850.77693	4111.5789	83.7627
199855	1450.99742	19857.84001	4087.15059	67.0642
199855	1451.00195	19861.05262	4078.26686	67.0424
199855	1451.00498	19864.07626	4073.80872	67.04275
199855	1451.00951	19864.48671	4077.44017	56.53963
199855	1451.01153	19872.87952	4077.4447	56.48443
199855	1451.01456	19862.07582	4083.12665	56.48478
200523	1456.10974	19939.00527	4206.8084	191.67933
200523	1456.11027	19940.10108	4193.4865	196.97302
200523	1456.11079	19944.72596	4185.91222	186.47711
200523	1456.11132	19953.69919	4189.71294	190.84281
200523	1456.11184	19939.5705	4178.15754	190.78494
200523	1456.11237	19941.12712	4178.83459	210.92399
200523	1456.11289	19929.41253	4177.90373	227.00361
200523	1456.11342	19921.80921	4179.49597	251.57166
200523	1456.11394	19916.04511	4193.98032	249.21591
200523	1456.11447	19897.73572	4157.55049	261.77911
200523	1456.115	19889.53035	4170.28769	249.33741
200523	1456.11602	19895.12996	4168.81254	251.68003
200523	1456.11705	19891.86077	4175.28047	251.63502
200523	1456.11807	19901.03894	4177.38416	246.51228
200523	1456.1191	19882.2883	4181.65788	241.47081
200523	1456.12013	19898.7829	4175.04448	238.66381
200523	1456.12065	19883.00983	4170.86368	234.27957
200523	1456.12118	19884.73803	4168.29395	234.23844
200523	1456.1222	19875.06404	4154.79804	247.66645
200523	1456.12323	19894.55141	4164.45828	241.55426
200523	1456.12426	19890.60858	4181.91392	228.06938
200523	1456.12578	19872.15902	4179.60303	217.73689
200523	1456.12631	19870.70496	4164.3414	213.36652
207556	1504.09097	21989.90205	3590.55798	-190.17199
207556	1504.0915	21952.08785	3579.86343	-220.37371
207556	1504.09202	21959.84456	3587.40994	-223.28804
207556	1504.09255	21957.91537	3588.10054	-232.56378
207556	1504.09307	21969.09553	3587.57014	-221.74762
207556	1504.0936	21958.98346	3575.57391	-231.54262
207556	1504.09413	21953.79446	3575.74037	-232.49116
207556	1504.09465	21931.05493	3569.64064	-227.68005
209270	1515.71776	20041.72438	1143.90676	205.42983
209270	1515.71828	20062.40613	1145.96712	190.04813
209270	1515.71881	20082.83427	1151.48926	212.2409
209270	1515.71933	20075.90116	1161.74624	232.42568
209270	1515.72038	20065.62631	1117.41222	199.82678
209270	1515.72091	20060.22987	1138.28525	182.71364
209270	1515.72143	20064.78937	1152.14903	163.58439
209270	1515.72196	20048.8816	1154.01927	154.81419
209270	1515.72301	20038.46974	1136.97042	133.78114
209270	1515.72353	20044.42117	1128.09274	107.04408
209270	1515.72406	20065.26933	1135.29491	93.59808
209270	1515.72458	20060.1914	1095.48985	99.93583
209270	1515.72511	20064.52175	1087.21506	95.75289
209270	1515.72564	20052.53965	1082.77522	110.05385
209270	1515.72719	20047.12555	1055.82815	83.0966
209270	1515.72771	20029.11343	1102.79555	49.04451
209270	1515.72824	20040.14603	1092.22026	69.18402
209270	1515.72876	20055.14545	1095.1674	52.23204
209270	1515.72929	20056.7652	1083.06618	43.78753
209270	1515.72981	20064.04942	1107.30364	78.10428
209270	1515.73034	20077.50979	1097.262	116.21413
209270	1515.73086	20067.3256	1093.85946	120.58338
209270	1515.73139	20077.21877	1090.6122	100.59093
209270	1515.73191	20087.31654	1073.35879	84.84169
209270	1515.73296	20077.14615	1090.5716	66.08375
209270	1515.73502	20061.96081	1060.37628	71.14469
209270	1515.73554	20066.78037	1082.6626	64.00431
209270	1515.73607	20048.67826	1075.68152	64.9558
209270	1515.73709	20048.15076	1066.427	53.66357
209270	1515.73762	20042.75654	1050.56233	79.31245
209271	1515.75333	20084.48984	1059.56932	95.88116
209271	1515.75385	20077.28242	1039.55218	74.02163
209271	1515.75438	20040.69453	1045.43339	44.43641
209271	1515.7549	20066.75708	1069.51661	54.32788
209271	1515.75543	20065.17491	1074.15179	66.23729
209271	1515.75595	20065.15151	1084.48199	60.17724
209271	1515.75648	20056.3401	1076.47963	78.50539
209271	1515.757	20030.60182	1088.79784	41.19307
209271	1515.75753	20040.84012	1077.55011	69.80012
209271	1515.75805	20035.48052	1089.73687	57.1515
209271	1515.75858	20029.6804	1089.16952	37.05293
209271	1515.7591	20034.34589	1070.93167	-1.37056
209271	1515.76013	20042.61163	1076.04941	4.78432
209271	1515.76266	20049.88618	1092.79126	15.02818
209271	1515.77171	20071.80086	1100.33611	14.97422
211236	1528.60497	21152.29367	1430.17845	100.82743
211236	1528.60599	21140.27029	1444.79031	93.21634
211236	1528.60652	21144.25861	1431.54246	79.15431
211236	1528.60754	21134.78739	1427.36328	60.26792
211236	1528.60807	21138.44645	1435.60214	56.40198
211236	1528.60859	21130.90608	1425.01979	72.6234
211236	1528.60962	21134.61128	1408.009	76.82869
211236	1528.61165	21120.81152	1420.28608	80.15131
211236	1528.61418	21125.16638	1432.34813	80.13995
212868	1539.92217	21981.31813	3513.07467	108.47687
212868	1539.92269	22000.38863	3503.63544	105.22738
212868	1539.92322	22023.37205	3520.11219	93.85573
212868	1539.92427	21961.73298	3502.87062	85.52902
212868	1539.9248	22002.57904	3513.91166	47.35098
212868	1539.92532	22020.61596	3548.40389	83.04366
212868	1539.92585	22004.05806	3526.2387	89.61992
212868	1539.92637	22018.94151	3534.76381	86.82656
213406	1543.57142	20429.04051	2288.45147	-226.02431
213406	1543.57245	20457.67158	2296.79823	-221.76736
213406	1543.57348	20469.24609	2287.53306	-215.88833
213406	1543.5745	20442.84333	2295.73294	-223.95583
213406	1543.57755	20441.60554	2298.87716	-216.87832
213406	1543.57858	20457.25509	2296.23146	-227.34818
213406	1543.57961	20449.14717	2285.17118	-214.69709
213406	1543.58213	20459.25423	2284.32648	-187.22447
213406	1543.58466	20469.29803	2291.19334	-179.20305
213406	1543.58619	20466.38432	2272.87525	-170.17245
213406	1543.58721	20460.59872	2250.09748	-167.00089
213406	1543.58774	20491.49704	2262.0047	-189.82525
213406	1543.58927	20471.83616	2259.06639	-192.18854
213406	1543.59079	20458.63866	2249.9323	-167.86916
213406	1543.59182	20466.21689	2250.26059	-157.41749
213406	1543.59387	20479.91615	2230.89188	-119.64415
213406	1543.5949	20486.78669	2253.44729	-132.5966
213406	1543.59592	20473.18676	2266.7321	-142.85686
213406	1543.59645	20476.36365	2274.47672	-130.91079
213406	1543.59747	20461.01932	2275.34664	-134.03059
213406	1543.598	20459.83791	2310.31803	-150.78512
213406	1543.59852	20460.64367	2303.86758	-163.43222
213406	1543.59955	20482.81464	2298.27244	-155.20014
213406	1543.60058	20461.24278	2321.02947	-178.71688
213406	1543.6011	20468.83792	2305.2389	-192.23906
213406	1543.60163	20452.07868	2348.18222	-174.55166
213406	1543.60418	20462.31173	2311.73997	-201.28914
214221	1549.20203	20893.52638	3067.35564	-1.44274
214221	1549.20308	20859.39333	3010.26609	-27.16515
214221	1549.20361	20883.49518	3047.97778	-34.24605
214221	1549.20566	20878.3191	3052.03719	-9.76664
214221	1549.20618	20892.76054	3007.82528	6.66176
214221	1549.20671	20888.60723	3022.36079	10.50348
214221	1549.20724	20929.47946	3015.49528	46.67106
214221	1549.20776	20913.56625	3038.8736	24.32049
214221	1549.20829	20917.59101	3006.3584	16.13089
214221	1549.20881	20915.92487	3019.62271	32.48032
214221	1549.20934	20897.32625	3001.15058	2.42103
214221	1549.20986	20886.12268	3012.40571	-2.60251
214221	1549.21089	20877.43014	3004.62575	35.59398
214221	1549.21141	20890.47224	3007.5988	38.94881
214221	1549.21244	20869.32106	3016.99016	52.81824
214221	1549.21297	20878.68307	3006.7222	52.80852
214221	1549.21349	20878.68319	3030.9622	77.02942
214221	1549.21402	20871.39555	3010.36898	84.6856
214221	1549.21504	20860.9186	3016.94589	81.91612
214221	1549.21657	20870.3314	3027.3577	79.83821